#  E (eV)   dos(E)     Int dos(E) EFermi =   11.959 eV
  -5.424  0.0000E+00  0.0000E+00
  -5.414  0.2452E+00  0.8172E-03
  -5.404  0.1479E+01  0.8405E-02
  -5.394  0.1941E+01  0.2569E-01
  -5.384  0.2498E+01  0.4759E-01
  -5.374  0.3183E+01  0.7833E-01
  -5.364  0.3817E+01  0.1134E+00
  -5.354  0.4458E+01  0.1547E+00
  -5.344  0.5492E+01  0.2039E+00
  -5.334  0.6178E+01  0.2622E+00
  -5.324  0.7138E+01  0.3284E+00
  -5.314  0.8758E+01  0.4072E+00
  -5.304  0.1138E+02  0.5117E+00
  -5.294  0.1386E+02  0.6382E+00
  -5.284  0.1733E+02  0.7928E+00
  -5.274  0.2308E+02  0.9924E+00
  -5.264  0.3822E+02  0.1286E+01
  -5.254  0.4406E+02  0.1734E+01
  -5.244  0.2556E+02  0.2094E+01
  -5.234  0.1260E+02  0.2268E+01
  -5.224  0.2533E+02  0.2407E+01
  -5.214  0.3380E+02  0.2665E+01
  -5.204  0.5084E+02  0.3092E+01
  -5.194  0.3644E+02  0.3559E+01
  -5.184  0.3331E+02  0.3902E+01
  -5.174  0.1838E+02  0.4131E+01
  -5.164  0.1433E+02  0.4293E+01
  -5.154  0.1262E+02  0.4429E+01
  -5.144  0.1230E+02  0.4549E+01
  -5.134  0.1151E+02  0.4665E+01
  -5.124  0.1255E+02  0.4785E+01
  -5.114  0.1560E+02  0.4921E+01
  -5.104  0.2523E+02  0.5129E+01
  -5.094  0.2519E+02  0.5385E+01
  -5.084  0.1839E+02  0.5609E+01
  -5.074  0.1521E+02  0.5773E+01
  -5.064  0.1495E+02  0.5923E+01
  -5.054  0.1490E+02  0.6072E+01
  -5.044  0.1933E+02  0.6231E+01
  -5.034  0.3199E+02  0.6491E+01
  -5.024  0.3488E+02  0.6837E+01
  -5.014  0.3111E+02  0.7175E+01
  -5.004  0.2437E+02  0.7449E+01
  -4.994  0.2365E+02  0.7684E+01
  -4.984  0.2701E+02  0.7931E+01
  -4.974  0.2419E+02  0.8185E+01
  -4.964  0.2359E+02  0.8425E+01
  -4.954  0.2314E+02  0.8657E+01
  -4.944  0.2513E+02  0.8902E+01
  -4.934  0.3462E+02  0.9203E+01
  -4.924  0.2449E+02  0.9529E+01
  -4.914  0.1626E+02  0.9723E+01
  -4.904  0.1351E+02  0.9873E+01
  -4.894  0.6102E+01  0.9979E+01
  -4.884  0.0000E+00  0.1000E+02
  -4.874  0.0000E+00  0.1000E+02
  -4.864  0.0000E+00  0.1000E+02
  -4.854  0.0000E+00  0.1000E+02
  -4.844  0.0000E+00  0.1000E+02
  -4.834  0.0000E+00  0.1000E+02
  -4.824  0.0000E+00  0.1000E+02
  -4.814  0.0000E+00  0.1000E+02
  -4.804  0.0000E+00  0.1000E+02
  -4.794  0.0000E+00  0.1000E+02
  -4.784  0.0000E+00  0.1000E+02
  -4.774  0.0000E+00  0.1000E+02
  -4.764  0.0000E+00  0.1000E+02
  -4.754  0.0000E+00  0.1000E+02
  -4.744  0.0000E+00  0.1000E+02
  -4.734  0.0000E+00  0.1000E+02
  -4.724  0.0000E+00  0.1000E+02
  -4.714  0.0000E+00  0.1000E+02
  -4.704  0.0000E+00  0.1000E+02
  -4.694  0.0000E+00  0.1000E+02
  -4.684  0.0000E+00  0.1000E+02
  -4.674  0.0000E+00  0.1000E+02
  -4.664  0.0000E+00  0.1000E+02
  -4.654  0.0000E+00  0.1000E+02
  -4.644  0.0000E+00  0.1000E+02
  -4.634  0.0000E+00  0.1000E+02
  -4.624  0.0000E+00  0.1000E+02
  -4.614  0.0000E+00  0.1000E+02
  -4.604  0.0000E+00  0.1000E+02
  -4.594  0.0000E+00  0.1000E+02
  -4.584  0.0000E+00  0.1000E+02
  -4.574  0.0000E+00  0.1000E+02
  -4.564  0.0000E+00  0.1000E+02
  -4.554  0.0000E+00  0.1000E+02
  -4.544  0.0000E+00  0.1000E+02
  -4.534  0.0000E+00  0.1000E+02
  -4.524  0.0000E+00  0.1000E+02
  -4.514  0.0000E+00  0.1000E+02
  -4.504  0.0000E+00  0.1000E+02
  -4.494  0.0000E+00  0.1000E+02
  -4.484  0.0000E+00  0.1000E+02
  -4.474  0.0000E+00  0.1000E+02
  -4.464  0.0000E+00  0.1000E+02
  -4.454  0.0000E+00  0.1000E+02
  -4.444  0.0000E+00  0.1000E+02
  -4.434  0.0000E+00  0.1000E+02
  -4.424  0.0000E+00  0.1000E+02
  -4.414  0.0000E+00  0.1000E+02
  -4.404  0.0000E+00  0.1000E+02
  -4.394  0.0000E+00  0.1000E+02
  -4.384  0.0000E+00  0.1000E+02
  -4.374  0.0000E+00  0.1000E+02
  -4.364  0.0000E+00  0.1000E+02
  -4.354  0.0000E+00  0.1000E+02
  -4.344  0.0000E+00  0.1000E+02
  -4.334  0.0000E+00  0.1000E+02
  -4.324  0.0000E+00  0.1000E+02
  -4.314  0.0000E+00  0.1000E+02
  -4.304  0.0000E+00  0.1000E+02
  -4.294  0.0000E+00  0.1000E+02
  -4.284  0.0000E+00  0.1000E+02
  -4.274  0.0000E+00  0.1000E+02
  -4.264  0.0000E+00  0.1000E+02
  -4.254  0.0000E+00  0.1000E+02
  -4.244  0.0000E+00  0.1000E+02
  -4.234  0.0000E+00  0.1000E+02
  -4.224  0.0000E+00  0.1000E+02
  -4.214  0.0000E+00  0.1000E+02
  -4.204  0.0000E+00  0.1000E+02
  -4.194  0.0000E+00  0.1000E+02
  -4.184  0.0000E+00  0.1000E+02
  -4.174  0.0000E+00  0.1000E+02
  -4.164  0.0000E+00  0.1000E+02
  -4.154  0.0000E+00  0.1000E+02
  -4.144  0.0000E+00  0.1000E+02
  -4.134  0.0000E+00  0.1000E+02
  -4.124  0.0000E+00  0.1000E+02
  -4.114  0.0000E+00  0.1000E+02
  -4.104  0.0000E+00  0.1000E+02
  -4.094  0.0000E+00  0.1000E+02
  -4.084  0.0000E+00  0.1000E+02
  -4.074  0.0000E+00  0.1000E+02
  -4.064  0.0000E+00  0.1000E+02
  -4.054  0.0000E+00  0.1000E+02
  -4.044  0.0000E+00  0.1000E+02
  -4.034  0.0000E+00  0.1000E+02
  -4.024  0.0000E+00  0.1000E+02
  -4.014  0.0000E+00  0.1000E+02
  -4.004  0.0000E+00  0.1000E+02
  -3.994  0.0000E+00  0.1000E+02
  -3.984  0.0000E+00  0.1000E+02
  -3.974  0.0000E+00  0.1000E+02
  -3.964  0.0000E+00  0.1000E+02
  -3.954  0.0000E+00  0.1000E+02
  -3.944  0.0000E+00  0.1000E+02
  -3.934  0.0000E+00  0.1000E+02
  -3.924  0.0000E+00  0.1000E+02
  -3.914  0.0000E+00  0.1000E+02
  -3.904  0.0000E+00  0.1000E+02
  -3.894  0.0000E+00  0.1000E+02
  -3.884  0.0000E+00  0.1000E+02
  -3.874  0.0000E+00  0.1000E+02
  -3.864  0.0000E+00  0.1000E+02
  -3.854  0.0000E+00  0.1000E+02
  -3.844  0.0000E+00  0.1000E+02
  -3.834  0.0000E+00  0.1000E+02
  -3.824  0.0000E+00  0.1000E+02
  -3.814  0.0000E+00  0.1000E+02
  -3.804  0.0000E+00  0.1000E+02
  -3.794  0.0000E+00  0.1000E+02
  -3.784  0.0000E+00  0.1000E+02
  -3.774  0.0000E+00  0.1000E+02
  -3.764  0.0000E+00  0.1000E+02
  -3.754  0.0000E+00  0.1000E+02
  -3.744  0.0000E+00  0.1000E+02
  -3.734  0.0000E+00  0.1000E+02
  -3.724  0.0000E+00  0.1000E+02
  -3.714  0.0000E+00  0.1000E+02
  -3.704  0.0000E+00  0.1000E+02
  -3.694  0.0000E+00  0.1000E+02
  -3.684  0.0000E+00  0.1000E+02
  -3.674  0.0000E+00  0.1000E+02
  -3.664  0.0000E+00  0.1000E+02
  -3.654  0.0000E+00  0.1000E+02
  -3.644  0.0000E+00  0.1000E+02
  -3.634  0.0000E+00  0.1000E+02
  -3.624  0.0000E+00  0.1000E+02
  -3.614  0.0000E+00  0.1000E+02
  -3.604  0.0000E+00  0.1000E+02
  -3.594  0.0000E+00  0.1000E+02
  -3.584  0.0000E+00  0.1000E+02
  -3.574  0.0000E+00  0.1000E+02
  -3.564  0.0000E+00  0.1000E+02
  -3.554  0.0000E+00  0.1000E+02
  -3.544  0.0000E+00  0.1000E+02
  -3.534  0.0000E+00  0.1000E+02
  -3.524  0.0000E+00  0.1000E+02
  -3.514  0.0000E+00  0.1000E+02
  -3.504  0.0000E+00  0.1000E+02
  -3.494  0.0000E+00  0.1000E+02
  -3.484  0.0000E+00  0.1000E+02
  -3.474  0.0000E+00  0.1000E+02
  -3.464  0.0000E+00  0.1000E+02
  -3.454  0.0000E+00  0.1000E+02
  -3.444  0.0000E+00  0.1000E+02
  -3.434  0.0000E+00  0.1000E+02
  -3.424  0.0000E+00  0.1000E+02
  -3.414  0.0000E+00  0.1000E+02
  -3.404  0.0000E+00  0.1000E+02
  -3.394  0.0000E+00  0.1000E+02
  -3.384  0.0000E+00  0.1000E+02
  -3.374  0.0000E+00  0.1000E+02
  -3.364  0.0000E+00  0.1000E+02
  -3.354  0.0000E+00  0.1000E+02
  -3.344  0.0000E+00  0.1000E+02
  -3.334  0.0000E+00  0.1000E+02
  -3.324  0.0000E+00  0.1000E+02
  -3.314  0.0000E+00  0.1000E+02
  -3.304  0.0000E+00  0.1000E+02
  -3.294  0.0000E+00  0.1000E+02
  -3.284  0.0000E+00  0.1000E+02
  -3.274  0.0000E+00  0.1000E+02
  -3.264  0.0000E+00  0.1000E+02
  -3.254  0.0000E+00  0.1000E+02
  -3.244  0.0000E+00  0.1000E+02
  -3.234  0.0000E+00  0.1000E+02
  -3.224  0.0000E+00  0.1000E+02
  -3.214  0.0000E+00  0.1000E+02
  -3.204  0.0000E+00  0.1000E+02
  -3.194  0.0000E+00  0.1000E+02
  -3.184  0.0000E+00  0.1000E+02
  -3.174  0.0000E+00  0.1000E+02
  -3.164  0.0000E+00  0.1000E+02
  -3.154  0.0000E+00  0.1000E+02
  -3.144  0.0000E+00  0.1000E+02
  -3.134  0.0000E+00  0.1000E+02
  -3.124  0.0000E+00  0.1000E+02
  -3.114  0.0000E+00  0.1000E+02
  -3.104  0.0000E+00  0.1000E+02
  -3.094  0.0000E+00  0.1000E+02
  -3.084  0.0000E+00  0.1000E+02
  -3.074  0.0000E+00  0.1000E+02
  -3.064  0.0000E+00  0.1000E+02
  -3.054  0.0000E+00  0.1000E+02
  -3.044  0.0000E+00  0.1000E+02
  -3.034  0.0000E+00  0.1000E+02
  -3.024  0.0000E+00  0.1000E+02
  -3.014  0.0000E+00  0.1000E+02
  -3.004  0.0000E+00  0.1000E+02
  -2.994  0.0000E+00  0.1000E+02
  -2.984  0.0000E+00  0.1000E+02
  -2.974  0.0000E+00  0.1000E+02
  -2.964  0.0000E+00  0.1000E+02
  -2.954  0.0000E+00  0.1000E+02
  -2.944  0.0000E+00  0.1000E+02
  -2.934  0.0000E+00  0.1000E+02
  -2.924  0.0000E+00  0.1000E+02
  -2.914  0.0000E+00  0.1000E+02
  -2.904  0.0000E+00  0.1000E+02
  -2.894  0.0000E+00  0.1000E+02
  -2.884  0.0000E+00  0.1000E+02
  -2.874  0.0000E+00  0.1000E+02
  -2.864  0.0000E+00  0.1000E+02
  -2.854  0.0000E+00  0.1000E+02
  -2.844  0.0000E+00  0.1000E+02
  -2.834  0.0000E+00  0.1000E+02
  -2.824  0.0000E+00  0.1000E+02
  -2.814  0.0000E+00  0.1000E+02
  -2.804  0.0000E+00  0.1000E+02
  -2.794  0.0000E+00  0.1000E+02
  -2.784  0.0000E+00  0.1000E+02
  -2.774  0.0000E+00  0.1000E+02
  -2.764  0.0000E+00  0.1000E+02
  -2.754  0.0000E+00  0.1000E+02
  -2.744  0.0000E+00  0.1000E+02
  -2.734  0.0000E+00  0.1000E+02
  -2.724  0.0000E+00  0.1000E+02
  -2.714  0.0000E+00  0.1000E+02
  -2.704  0.0000E+00  0.1000E+02
  -2.694  0.0000E+00  0.1000E+02
  -2.684  0.0000E+00  0.1000E+02
  -2.674  0.0000E+00  0.1000E+02
  -2.664  0.0000E+00  0.1000E+02
  -2.654  0.0000E+00  0.1000E+02
  -2.644  0.0000E+00  0.1000E+02
  -2.634  0.0000E+00  0.1000E+02
  -2.624  0.0000E+00  0.1000E+02
  -2.614  0.0000E+00  0.1000E+02
  -2.604  0.0000E+00  0.1000E+02
  -2.594  0.0000E+00  0.1000E+02
  -2.584  0.0000E+00  0.1000E+02
  -2.574  0.0000E+00  0.1000E+02
  -2.564  0.0000E+00  0.1000E+02
  -2.554  0.0000E+00  0.1000E+02
  -2.544  0.0000E+00  0.1000E+02
  -2.534  0.0000E+00  0.1000E+02
  -2.524  0.0000E+00  0.1000E+02
  -2.514  0.0000E+00  0.1000E+02
  -2.504  0.0000E+00  0.1000E+02
  -2.494  0.0000E+00  0.1000E+02
  -2.484  0.0000E+00  0.1000E+02
  -2.474  0.0000E+00  0.1000E+02
  -2.464  0.0000E+00  0.1000E+02
  -2.454  0.0000E+00  0.1000E+02
  -2.444  0.0000E+00  0.1000E+02
  -2.434  0.0000E+00  0.1000E+02
  -2.424  0.0000E+00  0.1000E+02
  -2.414  0.0000E+00  0.1000E+02
  -2.404  0.0000E+00  0.1000E+02
  -2.394  0.0000E+00  0.1000E+02
  -2.384  0.0000E+00  0.1000E+02
  -2.374  0.0000E+00  0.1000E+02
  -2.364  0.0000E+00  0.1000E+02
  -2.354  0.0000E+00  0.1000E+02
  -2.344  0.0000E+00  0.1000E+02
  -2.334  0.0000E+00  0.1000E+02
  -2.324  0.0000E+00  0.1000E+02
  -2.314  0.0000E+00  0.1000E+02
  -2.304  0.0000E+00  0.1000E+02
  -2.294  0.0000E+00  0.1000E+02
  -2.284  0.0000E+00  0.1000E+02
  -2.274  0.0000E+00  0.1000E+02
  -2.264  0.0000E+00  0.1000E+02
  -2.254  0.0000E+00  0.1000E+02
  -2.244  0.0000E+00  0.1000E+02
  -2.234  0.0000E+00  0.1000E+02
  -2.224  0.0000E+00  0.1000E+02
  -2.214  0.0000E+00  0.1000E+02
  -2.204  0.0000E+00  0.1000E+02
  -2.194  0.0000E+00  0.1000E+02
  -2.184  0.0000E+00  0.1000E+02
  -2.174  0.0000E+00  0.1000E+02
  -2.164  0.0000E+00  0.1000E+02
  -2.154  0.0000E+00  0.1000E+02
  -2.144  0.0000E+00  0.1000E+02
  -2.134  0.0000E+00  0.1000E+02
  -2.124  0.0000E+00  0.1000E+02
  -2.114  0.0000E+00  0.1000E+02
  -2.104  0.0000E+00  0.1000E+02
  -2.094  0.0000E+00  0.1000E+02
  -2.084  0.0000E+00  0.1000E+02
  -2.074  0.0000E+00  0.1000E+02
  -2.064  0.0000E+00  0.1000E+02
  -2.054  0.0000E+00  0.1000E+02
  -2.044  0.0000E+00  0.1000E+02
  -2.034  0.0000E+00  0.1000E+02
  -2.024  0.0000E+00  0.1000E+02
  -2.014  0.0000E+00  0.1000E+02
  -2.004  0.0000E+00  0.1000E+02
  -1.994  0.0000E+00  0.1000E+02
  -1.984  0.0000E+00  0.1000E+02
  -1.974  0.0000E+00  0.1000E+02
  -1.964  0.0000E+00  0.1000E+02
  -1.954  0.0000E+00  0.1000E+02
  -1.944  0.0000E+00  0.1000E+02
  -1.934  0.0000E+00  0.1000E+02
  -1.924  0.0000E+00  0.1000E+02
  -1.914  0.0000E+00  0.1000E+02
  -1.904  0.0000E+00  0.1000E+02
  -1.894  0.0000E+00  0.1000E+02
  -1.884  0.0000E+00  0.1000E+02
  -1.874  0.0000E+00  0.1000E+02
  -1.864  0.0000E+00  0.1000E+02
  -1.854  0.0000E+00  0.1000E+02
  -1.844  0.0000E+00  0.1000E+02
  -1.834  0.0000E+00  0.1000E+02
  -1.824  0.0000E+00  0.1000E+02
  -1.814  0.0000E+00  0.1000E+02
  -1.804  0.0000E+00  0.1000E+02
  -1.794  0.0000E+00  0.1000E+02
  -1.784  0.0000E+00  0.1000E+02
  -1.774  0.0000E+00  0.1000E+02
  -1.764  0.0000E+00  0.1000E+02
  -1.754  0.0000E+00  0.1000E+02
  -1.744  0.0000E+00  0.1000E+02
  -1.734  0.0000E+00  0.1000E+02
  -1.724  0.0000E+00  0.1000E+02
  -1.714  0.0000E+00  0.1000E+02
  -1.704  0.0000E+00  0.1000E+02
  -1.694  0.0000E+00  0.1000E+02
  -1.684  0.0000E+00  0.1000E+02
  -1.674  0.0000E+00  0.1000E+02
  -1.664  0.0000E+00  0.1000E+02
  -1.654  0.0000E+00  0.1000E+02
  -1.644  0.0000E+00  0.1000E+02
  -1.634  0.0000E+00  0.1000E+02
  -1.624  0.0000E+00  0.1000E+02
  -1.614  0.0000E+00  0.1000E+02
  -1.604  0.0000E+00  0.1000E+02
  -1.594  0.0000E+00  0.1000E+02
  -1.584  0.0000E+00  0.1000E+02
  -1.574  0.0000E+00  0.1000E+02
  -1.564  0.0000E+00  0.1000E+02
  -1.554  0.0000E+00  0.1000E+02
  -1.544  0.0000E+00  0.1000E+02
  -1.534  0.0000E+00  0.1000E+02
  -1.524  0.0000E+00  0.1000E+02
  -1.514  0.0000E+00  0.1000E+02
  -1.504  0.0000E+00  0.1000E+02
  -1.494  0.0000E+00  0.1000E+02
  -1.484  0.0000E+00  0.1000E+02
  -1.474  0.0000E+00  0.1000E+02
  -1.464  0.0000E+00  0.1000E+02
  -1.454  0.0000E+00  0.1000E+02
  -1.444  0.0000E+00  0.1000E+02
  -1.434  0.0000E+00  0.1000E+02
  -1.424  0.0000E+00  0.1000E+02
  -1.414  0.0000E+00  0.1000E+02
  -1.404  0.0000E+00  0.1000E+02
  -1.394  0.0000E+00  0.1000E+02
  -1.384  0.0000E+00  0.1000E+02
  -1.374  0.0000E+00  0.1000E+02
  -1.364  0.0000E+00  0.1000E+02
  -1.354  0.0000E+00  0.1000E+02
  -1.344  0.0000E+00  0.1000E+02
  -1.334  0.0000E+00  0.1000E+02
  -1.324  0.0000E+00  0.1000E+02
  -1.314  0.0000E+00  0.1000E+02
  -1.304  0.0000E+00  0.1000E+02
  -1.294  0.0000E+00  0.1000E+02
  -1.284  0.0000E+00  0.1000E+02
  -1.274  0.0000E+00  0.1000E+02
  -1.264  0.0000E+00  0.1000E+02
  -1.254  0.0000E+00  0.1000E+02
  -1.244  0.0000E+00  0.1000E+02
  -1.234  0.0000E+00  0.1000E+02
  -1.224  0.0000E+00  0.1000E+02
  -1.214  0.0000E+00  0.1000E+02
  -1.204  0.0000E+00  0.1000E+02
  -1.194  0.0000E+00  0.1000E+02
  -1.184  0.0000E+00  0.1000E+02
  -1.174  0.0000E+00  0.1000E+02
  -1.164  0.0000E+00  0.1000E+02
  -1.154  0.0000E+00  0.1000E+02
  -1.144  0.0000E+00  0.1000E+02
  -1.134  0.0000E+00  0.1000E+02
  -1.124  0.0000E+00  0.1000E+02
  -1.114  0.0000E+00  0.1000E+02
  -1.104  0.0000E+00  0.1000E+02
  -1.094  0.0000E+00  0.1000E+02
  -1.084  0.0000E+00  0.1000E+02
  -1.074  0.0000E+00  0.1000E+02
  -1.064  0.0000E+00  0.1000E+02
  -1.054  0.0000E+00  0.1000E+02
  -1.044  0.0000E+00  0.1000E+02
  -1.034  0.0000E+00  0.1000E+02
  -1.024  0.0000E+00  0.1000E+02
  -1.014  0.0000E+00  0.1000E+02
  -1.004  0.0000E+00  0.1000E+02
  -0.994  0.0000E+00  0.1000E+02
  -0.984  0.0000E+00  0.1000E+02
  -0.974  0.0000E+00  0.1000E+02
  -0.964  0.0000E+00  0.1000E+02
  -0.954  0.0000E+00  0.1000E+02
  -0.944  0.0000E+00  0.1000E+02
  -0.934  0.0000E+00  0.1000E+02
  -0.924  0.0000E+00  0.1000E+02
  -0.914  0.0000E+00  0.1000E+02
  -0.904  0.0000E+00  0.1000E+02
  -0.894  0.0000E+00  0.1000E+02
  -0.884  0.0000E+00  0.1000E+02
  -0.874  0.0000E+00  0.1000E+02
  -0.864  0.0000E+00  0.1000E+02
  -0.854  0.0000E+00  0.1000E+02
  -0.844  0.0000E+00  0.1000E+02
  -0.834  0.0000E+00  0.1000E+02
  -0.824  0.0000E+00  0.1000E+02
  -0.814  0.0000E+00  0.1000E+02
  -0.804  0.0000E+00  0.1000E+02
  -0.794  0.0000E+00  0.1000E+02
  -0.784  0.0000E+00  0.1000E+02
  -0.774  0.0000E+00  0.1000E+02
  -0.764  0.0000E+00  0.1000E+02
  -0.754  0.0000E+00  0.1000E+02
  -0.744  0.0000E+00  0.1000E+02
  -0.734  0.0000E+00  0.1000E+02
  -0.724  0.0000E+00  0.1000E+02
  -0.714  0.0000E+00  0.1000E+02
  -0.704  0.0000E+00  0.1000E+02
  -0.694  0.0000E+00  0.1000E+02
  -0.684  0.0000E+00  0.1000E+02
  -0.674  0.0000E+00  0.1000E+02
  -0.664  0.0000E+00  0.1000E+02
  -0.654  0.0000E+00  0.1000E+02
  -0.644  0.0000E+00  0.1000E+02
  -0.634  0.0000E+00  0.1000E+02
  -0.624  0.0000E+00  0.1000E+02
  -0.614  0.0000E+00  0.1000E+02
  -0.604  0.0000E+00  0.1000E+02
  -0.594  0.0000E+00  0.1000E+02
  -0.584  0.0000E+00  0.1000E+02
  -0.574  0.0000E+00  0.1000E+02
  -0.564  0.0000E+00  0.1000E+02
  -0.554  0.0000E+00  0.1000E+02
  -0.544  0.0000E+00  0.1000E+02
  -0.534  0.0000E+00  0.1000E+02
  -0.524  0.0000E+00  0.1000E+02
  -0.514  0.0000E+00  0.1000E+02
  -0.504  0.0000E+00  0.1000E+02
  -0.494  0.0000E+00  0.1000E+02
  -0.484  0.0000E+00  0.1000E+02
  -0.474  0.0000E+00  0.1000E+02
  -0.464  0.0000E+00  0.1000E+02
  -0.454  0.0000E+00  0.1000E+02
  -0.444  0.0000E+00  0.1000E+02
  -0.434  0.0000E+00  0.1000E+02
  -0.424  0.0000E+00  0.1000E+02
  -0.414  0.0000E+00  0.1000E+02
  -0.404  0.0000E+00  0.1000E+02
  -0.394  0.0000E+00  0.1000E+02
  -0.384  0.0000E+00  0.1000E+02
  -0.374  0.0000E+00  0.1000E+02
  -0.364  0.0000E+00  0.1000E+02
  -0.354  0.0000E+00  0.1000E+02
  -0.344  0.0000E+00  0.1000E+02
  -0.334  0.0000E+00  0.1000E+02
  -0.324  0.0000E+00  0.1000E+02
  -0.314  0.0000E+00  0.1000E+02
  -0.304  0.0000E+00  0.1000E+02
  -0.294  0.0000E+00  0.1000E+02
  -0.284  0.0000E+00  0.1000E+02
  -0.274  0.0000E+00  0.1000E+02
  -0.264  0.0000E+00  0.1000E+02
  -0.254  0.0000E+00  0.1000E+02
  -0.244  0.0000E+00  0.1000E+02
  -0.234  0.0000E+00  0.1000E+02
  -0.224  0.0000E+00  0.1000E+02
  -0.214  0.0000E+00  0.1000E+02
  -0.204  0.0000E+00  0.1000E+02
  -0.194  0.0000E+00  0.1000E+02
  -0.184  0.0000E+00  0.1000E+02
  -0.174  0.1103E-03  0.1000E+02
  -0.164  0.5397E-03  0.1000E+02
  -0.154  0.1293E-02  0.1000E+02
  -0.144  0.2371E-02  0.1000E+02
  -0.134  0.3772E-02  0.1000E+02
  -0.124  0.5498E-02  0.1000E+02
  -0.114  0.7547E-02  0.1000E+02
  -0.104  0.9921E-02  0.1000E+02
  -0.094  0.1262E-01  0.1000E+02
  -0.084  0.1564E-01  0.1000E+02
  -0.074  0.1899E-01  0.1000E+02
  -0.064  0.2266E-01  0.1000E+02
  -0.054  0.2665E-01  0.1000E+02
  -0.044  0.3097E-01  0.1000E+02
  -0.034  0.6376E-01  0.1000E+02
  -0.024  0.8540E-01  0.1000E+02
  -0.014  0.8992E-01  0.1000E+02
  -0.004  0.7730E-01  0.1000E+02
   0.006  0.5552E-01  0.1001E+02
   0.016  0.5750E-01  0.1001E+02
   0.026  0.5951E-01  0.1001E+02
   0.036  0.6155E-01  0.1001E+02
   0.046  0.6362E-01  0.1001E+02
   0.056  0.6571E-01  0.1001E+02
   0.066  0.6783E-01  0.1001E+02
   0.076  0.6997E-01  0.1001E+02
   0.086  0.7215E-01  0.1001E+02
   0.096  0.7435E-01  0.1001E+02
   0.106  0.7657E-01  0.1001E+02
   0.116  0.7883E-01  0.1001E+02
   0.126  0.8111E-01  0.1001E+02
   0.136  0.8341E-01  0.1001E+02
   0.146  0.8575E-01  0.1001E+02
   0.156  0.8811E-01  0.1002E+02
   0.166  0.9050E-01  0.1002E+02
   0.176  0.9291E-01  0.1002E+02
   0.186  0.9535E-01  0.1002E+02
   0.196  0.9862E-01  0.1002E+02
   0.206  0.1024E+00  0.1002E+02
   0.216  0.1059E+00  0.1002E+02
   0.226  0.1091E+00  0.1002E+02
   0.236  0.1120E+00  0.1002E+02
   0.246  0.1147E+00  0.1002E+02
   0.256  0.1171E+00  0.1003E+02
   0.266  0.1192E+00  0.1003E+02
   0.276  0.1211E+00  0.1003E+02
   0.286  0.1227E+00  0.1003E+02
   0.296  0.1240E+00  0.1003E+02
   0.306  0.1250E+00  0.1003E+02
   0.316  0.1257E+00  0.1003E+02
   0.326  0.1262E+00  0.1003E+02
   0.336  0.1243E+00  0.1004E+02
   0.346  0.1214E+00  0.1004E+02
   0.356  0.1196E+00  0.1004E+02
   0.366  0.1189E+00  0.1004E+02
   0.376  0.1193E+00  0.1004E+02
   0.386  0.1205E+00  0.1004E+02
   0.396  0.1217E+00  0.1004E+02
   0.406  0.1230E+00  0.1004E+02
   0.416  0.1243E+00  0.1005E+02
   0.426  0.1256E+00  0.1005E+02
   0.436  0.1269E+00  0.1005E+02
   0.446  0.1282E+00  0.1005E+02
   0.456  0.1296E+00  0.1005E+02
   0.466  0.1310E+00  0.1005E+02
   0.476  0.1324E+00  0.1005E+02
   0.486  0.1338E+00  0.1005E+02
   0.496  0.1353E+00  0.1006E+02
   0.506  0.1368E+00  0.1006E+02
   0.516  0.1383E+00  0.1006E+02
   0.526  0.1399E+00  0.1006E+02
   0.536  0.1414E+00  0.1006E+02
   0.546  0.1430E+00  0.1006E+02
   0.556  0.1446E+00  0.1006E+02
   0.566  0.1463E+00  0.1007E+02
   0.576  0.1479E+00  0.1007E+02
   0.586  0.1496E+00  0.1007E+02
   0.596  0.1512E+00  0.1007E+02
   0.606  0.1529E+00  0.1007E+02
   0.616  0.1546E+00  0.1007E+02
   0.626  0.1562E+00  0.1007E+02
   0.636  0.1579E+00  0.1008E+02
   0.646  0.1595E+00  0.1008E+02
   0.656  0.1612E+00  0.1008E+02
   0.666  0.1629E+00  0.1008E+02
   0.676  0.1646E+00  0.1008E+02
   0.686  0.1662E+00  0.1008E+02
   0.696  0.1679E+00  0.1009E+02
   0.706  0.1695E+00  0.1009E+02
   0.716  0.1706E+00  0.1009E+02
   0.726  0.1712E+00  0.1009E+02
   0.736  0.1715E+00  0.1009E+02
   0.746  0.1715E+00  0.1009E+02
   0.756  0.1718E+00  0.1010E+02
   0.766  0.1727E+00  0.1010E+02
   0.776  0.1735E+00  0.1010E+02
   0.786  0.1743E+00  0.1010E+02
   0.796  0.1751E+00  0.1010E+02
   0.806  0.1759E+00  0.1011E+02
   0.816  0.1766E+00  0.1011E+02
   0.826  0.1774E+00  0.1011E+02
   0.836  0.1781E+00  0.1011E+02
   0.846  0.1788E+00  0.1011E+02
   0.856  0.1795E+00  0.1011E+02
   0.866  0.1802E+00  0.1012E+02
   0.876  0.1809E+00  0.1012E+02
   0.886  0.1816E+00  0.1012E+02
   0.896  0.1822E+00  0.1012E+02
   0.906  0.1828E+00  0.1012E+02
   0.916  0.1834E+00  0.1012E+02
   0.926  0.1840E+00  0.1013E+02
   0.936  0.1846E+00  0.1013E+02
   0.946  0.1848E+00  0.1013E+02
   0.956  0.1851E+00  0.1013E+02
   0.966  0.1855E+00  0.1013E+02
   0.976  0.1859E+00  0.1014E+02
   0.986  0.1864E+00  0.1014E+02
   0.996  0.1870E+00  0.1014E+02
   1.006  0.1876E+00  0.1014E+02
   1.016  0.1883E+00  0.1014E+02
   1.026  0.1891E+00  0.1015E+02
   1.036  0.1899E+00  0.1015E+02
   1.046  0.1908E+00  0.1015E+02
   1.056  0.1918E+00  0.1015E+02
   1.066  0.1928E+00  0.1015E+02
   1.076  0.1939E+00  0.1015E+02
   1.086  0.1952E+00  0.1016E+02
   1.096  0.1964E+00  0.1016E+02
   1.106  0.1977E+00  0.1016E+02
   1.116  0.1989E+00  0.1016E+02
   1.126  0.2002E+00  0.1016E+02
   1.136  0.2015E+00  0.1017E+02
   1.146  0.2027E+00  0.1017E+02
   1.156  0.2040E+00  0.1017E+02
   1.166  0.2053E+00  0.1017E+02
   1.176  0.2066E+00  0.1017E+02
   1.186  0.2079E+00  0.1018E+02
   1.196  0.2092E+00  0.1018E+02
   1.206  0.2105E+00  0.1018E+02
   1.216  0.2118E+00  0.1018E+02
   1.226  0.2131E+00  0.1019E+02
   1.236  0.2144E+00  0.1019E+02
   1.246  0.2158E+00  0.1019E+02
   1.256  0.2171E+00  0.1019E+02
   1.266  0.2184E+00  0.1019E+02
   1.276  0.2198E+00  0.1020E+02
   1.286  0.2211E+00  0.1020E+02
   1.296  0.2225E+00  0.1020E+02
   1.306  0.2238E+00  0.1020E+02
   1.316  0.2251E+00  0.1021E+02
   1.326  0.2263E+00  0.1021E+02
   1.336  0.2274E+00  0.1021E+02
   1.346  0.2284E+00  0.1021E+02
   1.356  0.2293E+00  0.1021E+02
   1.366  0.2301E+00  0.1022E+02
   1.376  0.2308E+00  0.1022E+02
   1.386  0.2314E+00  0.1022E+02
   1.396  0.2319E+00  0.1022E+02
   1.406  0.2322E+00  0.1023E+02
   1.416  0.2325E+00  0.1023E+02
   1.426  0.2327E+00  0.1023E+02
   1.436  0.2328E+00  0.1023E+02
   1.446  0.2327E+00  0.1024E+02
   1.456  0.2328E+00  0.1024E+02
   1.466  0.2333E+00  0.1024E+02
   1.476  0.2341E+00  0.1024E+02
   1.486  0.2353E+00  0.1024E+02
   1.496  0.2361E+00  0.1025E+02
   1.506  0.2369E+00  0.1025E+02
   1.516  0.2376E+00  0.1025E+02
   1.526  0.2384E+00  0.1025E+02
   1.536  0.2391E+00  0.1026E+02
   1.546  0.2399E+00  0.1026E+02
   1.556  0.2407E+00  0.1026E+02
   1.566  0.2414E+00  0.1026E+02
   1.576  0.2422E+00  0.1027E+02
   1.586  0.2430E+00  0.1027E+02
   1.596  0.2438E+00  0.1027E+02
   1.606  0.2445E+00  0.1027E+02
   1.616  0.2453E+00  0.1028E+02
   1.626  0.2461E+00  0.1028E+02
   1.636  0.2469E+00  0.1028E+02
   1.646  0.2477E+00  0.1028E+02
   1.656  0.2485E+00  0.1029E+02
   1.666  0.2494E+00  0.1029E+02
   1.676  0.2502E+00  0.1029E+02
   1.686  0.2509E+00  0.1029E+02
   1.696  0.2517E+00  0.1030E+02
   1.706  0.2525E+00  0.1030E+02
   1.716  0.2532E+00  0.1030E+02
   1.726  0.2540E+00  0.1030E+02
   1.736  0.2547E+00  0.1031E+02
   1.746  0.2555E+00  0.1031E+02
   1.756  0.2562E+00  0.1031E+02
   1.766  0.2570E+00  0.1031E+02
   1.776  0.2577E+00  0.1032E+02
   1.786  0.2584E+00  0.1032E+02
   1.796  0.2592E+00  0.1032E+02
   1.806  0.2599E+00  0.1032E+02
   1.816  0.2606E+00  0.1033E+02
   1.826  0.2613E+00  0.1033E+02
   1.836  0.2621E+00  0.1033E+02
   1.846  0.2630E+00  0.1033E+02
   1.856  0.2640E+00  0.1034E+02
   1.866  0.2650E+00  0.1034E+02
   1.876  0.2660E+00  0.1034E+02
   1.886  0.2670E+00  0.1034E+02
   1.896  0.2681E+00  0.1035E+02
   1.906  0.2691E+00  0.1035E+02
   1.916  0.2702E+00  0.1035E+02
   1.926  0.2713E+00  0.1036E+02
   1.936  0.2724E+00  0.1036E+02
   1.946  0.2735E+00  0.1036E+02
   1.956  0.2746E+00  0.1036E+02
   1.966  0.2758E+00  0.1037E+02
   1.976  0.2769E+00  0.1037E+02
   1.986  0.2781E+00  0.1037E+02
   1.996  0.2793E+00  0.1037E+02
   2.006  0.2805E+00  0.1038E+02
   2.016  0.2817E+00  0.1038E+02
   2.026  0.2829E+00  0.1038E+02
   2.036  0.2842E+00  0.1039E+02
   2.046  0.2854E+00  0.1039E+02
   2.056  0.2867E+00  0.1039E+02
   2.066  0.2879E+00  0.1039E+02
   2.076  0.2892E+00  0.1040E+02
   2.086  0.2905E+00  0.1040E+02
   2.096  0.2918E+00  0.1040E+02
   2.106  0.2931E+00  0.1041E+02
   2.116  0.2944E+00  0.1041E+02
   2.126  0.2957E+00  0.1041E+02
   2.136  0.2970E+00  0.1042E+02
   2.146  0.2984E+00  0.1042E+02
   2.156  0.2997E+00  0.1042E+02
   2.166  0.3005E+00  0.1042E+02
   2.176  0.3012E+00  0.1043E+02
   2.186  0.3018E+00  0.1043E+02
   2.196  0.3023E+00  0.1043E+02
   2.206  0.3028E+00  0.1044E+02
   2.216  0.3036E+00  0.1044E+02
   2.226  0.3045E+00  0.1044E+02
   2.236  0.3053E+00  0.1045E+02
   2.246  0.3061E+00  0.1045E+02
   2.256  0.3069E+00  0.1045E+02
   2.266  0.3077E+00  0.1045E+02
   2.276  0.3085E+00  0.1046E+02
   2.286  0.3093E+00  0.1046E+02
   2.296  0.3100E+00  0.1046E+02
   2.306  0.3107E+00  0.1047E+02
   2.316  0.3115E+00  0.1047E+02
   2.326  0.3122E+00  0.1047E+02
   2.336  0.3129E+00  0.1048E+02
   2.346  0.3136E+00  0.1048E+02
   2.356  0.3142E+00  0.1048E+02
   2.366  0.3149E+00  0.1049E+02
   2.376  0.3156E+00  0.1049E+02
   2.386  0.3165E+00  0.1049E+02
   2.396  0.3174E+00  0.1050E+02
   2.406  0.3183E+00  0.1050E+02
   2.416  0.3193E+00  0.1050E+02
   2.426  0.3203E+00  0.1050E+02
   2.436  0.3214E+00  0.1051E+02
   2.446  0.3225E+00  0.1051E+02
   2.456  0.3237E+00  0.1051E+02
   2.466  0.3249E+00  0.1052E+02
   2.476  0.3262E+00  0.1052E+02
   2.486  0.3275E+00  0.1052E+02
   2.496  0.3287E+00  0.1053E+02
   2.506  0.3299E+00  0.1053E+02
   2.516  0.3311E+00  0.1053E+02
   2.526  0.3322E+00  0.1054E+02
   2.536  0.3334E+00  0.1054E+02
   2.546  0.3346E+00  0.1054E+02
   2.556  0.3357E+00  0.1055E+02
   2.566  0.3369E+00  0.1055E+02
   2.576  0.3381E+00  0.1055E+02
   2.586  0.3393E+00  0.1056E+02
   2.596  0.3405E+00  0.1056E+02
   2.606  0.3417E+00  0.1056E+02
   2.616  0.3429E+00  0.1057E+02
   2.626  0.3441E+00  0.1057E+02
   2.636  0.3453E+00  0.1057E+02
   2.646  0.3466E+00  0.1058E+02
   2.656  0.3478E+00  0.1058E+02
   2.666  0.3490E+00  0.1058E+02
   2.676  0.3503E+00  0.1059E+02
   2.686  0.3515E+00  0.1059E+02
   2.696  0.3527E+00  0.1060E+02
   2.706  0.3540E+00  0.1060E+02
   2.716  0.3553E+00  0.1060E+02
   2.726  0.3565E+00  0.1061E+02
   2.736  0.3578E+00  0.1061E+02
   2.746  0.3591E+00  0.1061E+02
   2.756  0.3603E+00  0.1062E+02
   2.766  0.3616E+00  0.1062E+02
   2.776  0.3629E+00  0.1062E+02
   2.786  0.3642E+00  0.1063E+02
   2.796  0.3655E+00  0.1063E+02
   2.806  0.3668E+00  0.1064E+02
   2.816  0.3681E+00  0.1064E+02
   2.826  0.3694E+00  0.1064E+02
   2.836  0.3707E+00  0.1065E+02
   2.846  0.3722E+00  0.1065E+02
   2.856  0.3737E+00  0.1065E+02
   2.866  0.3753E+00  0.1066E+02
   2.876  0.3769E+00  0.1066E+02
   2.886  0.3785E+00  0.1066E+02
   2.896  0.3801E+00  0.1067E+02
   2.906  0.3818E+00  0.1067E+02
   2.916  0.3835E+00  0.1068E+02
   2.926  0.3852E+00  0.1068E+02
   2.936  0.3870E+00  0.1068E+02
   2.946  0.3888E+00  0.1069E+02
   2.956  0.3906E+00  0.1069E+02
   2.966  0.3924E+00  0.1070E+02
   2.976  0.3942E+00  0.1070E+02
   2.986  0.3961E+00  0.1070E+02
   2.996  0.3980E+00  0.1071E+02
   3.006  0.3999E+00  0.1071E+02
   3.016  0.4019E+00  0.1072E+02
   3.026  0.4039E+00  0.1072E+02
   3.036  0.4059E+00  0.1072E+02
   3.046  0.4079E+00  0.1073E+02
   3.056  0.4099E+00  0.1073E+02
   3.066  0.4120E+00  0.1074E+02
   3.076  0.4140E+00  0.1074E+02
   3.086  0.4161E+00  0.1074E+02
   3.096  0.4181E+00  0.1075E+02
   3.106  0.4202E+00  0.1075E+02
   3.116  0.4223E+00  0.1076E+02
   3.126  0.4244E+00  0.1076E+02
   3.136  0.4265E+00  0.1077E+02
   3.146  0.4286E+00  0.1077E+02
   3.156  0.4307E+00  0.1077E+02
   3.166  0.4329E+00  0.1078E+02
   3.176  0.4353E+00  0.1078E+02
   3.186  0.4376E+00  0.1079E+02
   3.196  0.4400E+00  0.1079E+02
   3.206  0.4425E+00  0.1080E+02
   3.216  0.4449E+00  0.1080E+02
   3.226  0.4474E+00  0.1080E+02
   3.236  0.4500E+00  0.1081E+02
   3.246  0.4525E+00  0.1081E+02
   3.256  0.4551E+00  0.1082E+02
   3.266  0.4578E+00  0.1082E+02
   3.276  0.4605E+00  0.1083E+02
   3.286  0.4632E+00  0.1083E+02
   3.296  0.4659E+00  0.1084E+02
   3.306  0.4687E+00  0.1084E+02
   3.316  0.4715E+00  0.1085E+02
   3.326  0.4743E+00  0.1085E+02
   3.336  0.4772E+00  0.1086E+02
   3.346  0.4801E+00  0.1086E+02
   3.356  0.4830E+00  0.1086E+02
   3.366  0.4860E+00  0.1087E+02
   3.376  0.4890E+00  0.1087E+02
   3.386  0.4921E+00  0.1088E+02
   3.396  0.4952E+00  0.1088E+02
   3.406  0.4988E+00  0.1089E+02
   3.416  0.5034E+00  0.1089E+02
   3.426  0.5086E+00  0.1090E+02
   3.436  0.5145E+00  0.1090E+02
   3.446  0.5210E+00  0.1091E+02
   3.456  0.5282E+00  0.1092E+02
   3.466  0.5361E+00  0.1092E+02
   3.476  0.5446E+00  0.1093E+02
   3.486  0.5537E+00  0.1093E+02
   3.496  0.5629E+00  0.1094E+02
   3.506  0.5696E+00  0.1094E+02
   3.516  0.5760E+00  0.1095E+02
   3.526  0.5821E+00  0.1095E+02
   3.536  0.5879E+00  0.1096E+02
   3.546  0.5935E+00  0.1097E+02
   3.556  0.5989E+00  0.1097E+02
   3.566  0.6039E+00  0.1098E+02
   3.576  0.6087E+00  0.1098E+02
   3.586  0.6132E+00  0.1099E+02
   3.596  0.6175E+00  0.1100E+02
   3.606  0.6215E+00  0.1100E+02
   3.616  0.6252E+00  0.1101E+02
   3.626  0.6287E+00  0.1101E+02
   3.636  0.6318E+00  0.1102E+02
   3.646  0.6348E+00  0.1103E+02
   3.656  0.6374E+00  0.1103E+02
   3.666  0.6398E+00  0.1104E+02
   3.676  0.6420E+00  0.1105E+02
   3.686  0.6438E+00  0.1105E+02
   3.696  0.6454E+00  0.1106E+02
   3.706  0.6442E+00  0.1107E+02
   3.716  0.6358E+00  0.1107E+02
   3.726  0.6333E+00  0.1108E+02
   3.736  0.6312E+00  0.1108E+02
   3.746  0.6295E+00  0.1109E+02
   3.756  0.6283E+00  0.1110E+02
   3.766  0.6275E+00  0.1110E+02
   3.776  0.6271E+00  0.1111E+02
   3.786  0.6271E+00  0.1112E+02
   3.796  0.6275E+00  0.1112E+02
   3.806  0.6283E+00  0.1113E+02
   3.816  0.6290E+00  0.1114E+02
   3.826  0.6298E+00  0.1114E+02
   3.836  0.6306E+00  0.1115E+02
   3.846  0.6313E+00  0.1115E+02
   3.856  0.6321E+00  0.1116E+02
   3.866  0.6329E+00  0.1117E+02
   3.876  0.6338E+00  0.1117E+02
   3.886  0.6346E+00  0.1118E+02
   3.896  0.6355E+00  0.1119E+02
   3.906  0.6363E+00  0.1119E+02
   3.916  0.6372E+00  0.1120E+02
   3.926  0.6381E+00  0.1120E+02
   3.936  0.6390E+00  0.1121E+02
   3.946  0.6399E+00  0.1122E+02
   3.956  0.6409E+00  0.1122E+02
   3.966  0.6418E+00  0.1123E+02
   3.976  0.6432E+00  0.1124E+02
   3.986  0.6382E+00  0.1124E+02
   3.996  0.6351E+00  0.1125E+02
   4.006  0.6338E+00  0.1126E+02
   4.016  0.6338E+00  0.1126E+02
   4.026  0.6351E+00  0.1127E+02
   4.036  0.6377E+00  0.1128E+02
   4.046  0.6411E+00  0.1128E+02
   4.056  0.6451E+00  0.1129E+02
   4.066  0.6495E+00  0.1129E+02
   4.076  0.6494E+00  0.1130E+02
   4.086  0.6467E+00  0.1131E+02
   4.096  0.6441E+00  0.1131E+02
   4.106  0.6416E+00  0.1132E+02
   4.116  0.6392E+00  0.1133E+02
   4.126  0.6368E+00  0.1133E+02
   4.136  0.6345E+00  0.1134E+02
   4.146  0.6322E+00  0.1135E+02
   4.156  0.6301E+00  0.1135E+02
   4.166  0.6280E+00  0.1136E+02
   4.176  0.6260E+00  0.1136E+02
   4.186  0.6240E+00  0.1137E+02
   4.196  0.6222E+00  0.1138E+02
   4.206  0.6204E+00  0.1138E+02
   4.216  0.6186E+00  0.1139E+02
   4.226  0.6170E+00  0.1140E+02
   4.236  0.6154E+00  0.1140E+02
   4.246  0.6139E+00  0.1141E+02
   4.256  0.6125E+00  0.1141E+02
   4.266  0.6111E+00  0.1142E+02
   4.276  0.6095E+00  0.1143E+02
   4.286  0.6078E+00  0.1143E+02
   4.296  0.6062E+00  0.1144E+02
   4.306  0.6046E+00  0.1144E+02
   4.316  0.6032E+00  0.1145E+02
   4.326  0.6018E+00  0.1146E+02
   4.336  0.6005E+00  0.1146E+02
   4.346  0.5994E+00  0.1147E+02
   4.356  0.5982E+00  0.1147E+02
   4.366  0.5972E+00  0.1148E+02
   4.376  0.5963E+00  0.1149E+02
   4.386  0.5954E+00  0.1149E+02
   4.396  0.5946E+00  0.1150E+02
   4.406  0.5939E+00  0.1150E+02
   4.416  0.5933E+00  0.1151E+02
   4.426  0.5928E+00  0.1152E+02
   4.436  0.5924E+00  0.1152E+02
   4.446  0.5921E+00  0.1153E+02
   4.456  0.5918E+00  0.1153E+02
   4.466  0.5917E+00  0.1154E+02
   4.476  0.5917E+00  0.1155E+02
   4.486  0.5918E+00  0.1155E+02
   4.496  0.5919E+00  0.1156E+02
   4.506  0.5922E+00  0.1156E+02
   4.516  0.5926E+00  0.1157E+02
   4.526  0.5929E+00  0.1158E+02
   4.536  0.5933E+00  0.1158E+02
   4.546  0.5937E+00  0.1159E+02
   4.556  0.5941E+00  0.1159E+02
   4.566  0.5946E+00  0.1160E+02
   4.576  0.5950E+00  0.1161E+02
   4.586  0.5955E+00  0.1161E+02
   4.596  0.5961E+00  0.1162E+02
   4.606  0.5966E+00  0.1162E+02
   4.616  0.5972E+00  0.1163E+02
   4.626  0.5977E+00  0.1163E+02
   4.636  0.5987E+00  0.1164E+02
   4.646  0.6014E+00  0.1165E+02
   4.656  0.6057E+00  0.1165E+02
   4.666  0.6118E+00  0.1166E+02
   4.676  0.6195E+00  0.1167E+02
   4.686  0.6289E+00  0.1167E+02
   4.696  0.6400E+00  0.1168E+02
   4.706  0.6528E+00  0.1168E+02
   4.716  0.6672E+00  0.1169E+02
   4.726  0.6358E+00  0.1170E+02
   4.736  0.6264E+00  0.1170E+02
   4.746  0.6283E+00  0.1171E+02
   4.756  0.6300E+00  0.1172E+02
   4.766  0.6316E+00  0.1172E+02
   4.776  0.6330E+00  0.1173E+02
   4.786  0.6344E+00  0.1174E+02
   4.796  0.6357E+00  0.1174E+02
   4.806  0.6369E+00  0.1175E+02
   4.816  0.6379E+00  0.1175E+02
   4.826  0.6389E+00  0.1176E+02
   4.836  0.6397E+00  0.1177E+02
   4.846  0.6405E+00  0.1177E+02
   4.856  0.6411E+00  0.1178E+02
   4.866  0.6417E+00  0.1179E+02
   4.876  0.6421E+00  0.1179E+02
   4.886  0.6425E+00  0.1180E+02
   4.896  0.6427E+00  0.1181E+02
   4.906  0.6429E+00  0.1181E+02
   4.916  0.6429E+00  0.1182E+02
   4.926  0.6429E+00  0.1182E+02
   4.936  0.6427E+00  0.1183E+02
   4.946  0.6428E+00  0.1184E+02
   4.956  0.6446E+00  0.1184E+02
   4.966  0.6485E+00  0.1185E+02
   4.976  0.6532E+00  0.1186E+02
   4.986  0.6574E+00  0.1186E+02
   4.996  0.6617E+00  0.1187E+02
   5.006  0.6661E+00  0.1188E+02
   5.016  0.6706E+00  0.1188E+02
   5.026  0.6751E+00  0.1189E+02
   5.036  0.6801E+00  0.1190E+02
   5.046  0.6835E+00  0.1190E+02
   5.056  0.6839E+00  0.1191E+02
   5.066  0.6812E+00  0.1192E+02
   5.076  0.6754E+00  0.1192E+02
   5.086  0.6666E+00  0.1193E+02
   5.096  0.6548E+00  0.1194E+02
   5.106  0.6399E+00  0.1194E+02
   5.116  0.6220E+00  0.1195E+02
   5.126  0.6010E+00  0.1196E+02
   5.136  0.5787E+00  0.1196E+02
   5.146  0.5471E+00  0.1197E+02
   5.156  0.5011E+00  0.1197E+02
   5.166  0.4436E+00  0.1198E+02
   5.176  0.3882E+00  0.1198E+02
   5.186  0.3351E+00  0.1199E+02
   5.196  0.2845E+00  0.1199E+02
   5.206  0.2363E+00  0.1199E+02
   5.216  0.1905E+00  0.1199E+02
   5.226  0.1488E+00  0.1200E+02
   5.236  0.1123E+00  0.1200E+02
   5.246  0.8578E-01  0.1200E+02
   5.256  0.6522E-01  0.1200E+02
   5.266  0.4759E-01  0.1200E+02
   5.276  0.3288E-01  0.1200E+02
   5.286  0.2109E-01  0.1200E+02
   5.296  0.1223E-01  0.1200E+02
   5.306  0.6130E-02  0.1200E+02
   5.316  0.2148E-02  0.1200E+02
   5.326  0.2070E-03  0.1200E+02
   5.336  0.0000E+00  0.1200E+02
   5.346  0.0000E+00  0.1200E+02
   5.356  0.0000E+00  0.1200E+02
   5.366  0.0000E+00  0.1200E+02
   5.376  0.0000E+00  0.1200E+02
   5.386  0.0000E+00  0.1200E+02
   5.396  0.0000E+00  0.1200E+02
   5.406  0.0000E+00  0.1200E+02
   5.416  0.0000E+00  0.1200E+02
   5.426  0.0000E+00  0.1200E+02
   5.436  0.0000E+00  0.1200E+02
   5.446  0.0000E+00  0.1200E+02
   5.456  0.0000E+00  0.1200E+02
   5.466  0.0000E+00  0.1200E+02
   5.476  0.0000E+00  0.1200E+02
   5.486  0.0000E+00  0.1200E+02
   5.496  0.0000E+00  0.1200E+02
   5.506  0.0000E+00  0.1200E+02
   5.516  0.0000E+00  0.1200E+02
   5.526  0.0000E+00  0.1200E+02
   5.536  0.0000E+00  0.1200E+02
   5.546  0.0000E+00  0.1200E+02
   5.556  0.0000E+00  0.1200E+02
   5.566  0.0000E+00  0.1200E+02
   5.576  0.0000E+00  0.1200E+02
   5.586  0.0000E+00  0.1200E+02
   5.596  0.0000E+00  0.1200E+02
   5.606  0.0000E+00  0.1200E+02
   5.616  0.0000E+00  0.1200E+02
   5.626  0.0000E+00  0.1200E+02
   5.636  0.0000E+00  0.1200E+02
   5.646  0.0000E+00  0.1200E+02
   5.656  0.0000E+00  0.1200E+02
   5.666  0.0000E+00  0.1200E+02
   5.676  0.0000E+00  0.1200E+02
   5.686  0.0000E+00  0.1200E+02
   5.696  0.0000E+00  0.1200E+02
   5.706  0.0000E+00  0.1200E+02
   5.716  0.0000E+00  0.1200E+02
   5.726  0.0000E+00  0.1200E+02
   5.736  0.0000E+00  0.1200E+02
   5.746  0.0000E+00  0.1200E+02
   5.756  0.0000E+00  0.1200E+02
   5.766  0.0000E+00  0.1200E+02
   5.776  0.0000E+00  0.1200E+02
   5.786  0.0000E+00  0.1200E+02
   5.796  0.0000E+00  0.1200E+02
   5.806  0.0000E+00  0.1200E+02
   5.816  0.0000E+00  0.1200E+02
   5.826  0.0000E+00  0.1200E+02
   5.836  0.0000E+00  0.1200E+02
   5.846  0.0000E+00  0.1200E+02
   5.856  0.0000E+00  0.1200E+02
   5.866  0.0000E+00  0.1200E+02
   5.876  0.0000E+00  0.1200E+02
   5.886  0.0000E+00  0.1200E+02
   5.896  0.0000E+00  0.1200E+02
   5.906  0.0000E+00  0.1200E+02
   5.916  0.0000E+00  0.1200E+02
   5.926  0.0000E+00  0.1200E+02
   5.936  0.0000E+00  0.1200E+02
   5.946  0.0000E+00  0.1200E+02
   5.956  0.0000E+00  0.1200E+02
   5.966  0.0000E+00  0.1200E+02
   5.976  0.0000E+00  0.1200E+02
   5.986  0.0000E+00  0.1200E+02
   5.996  0.0000E+00  0.1200E+02
   6.006  0.0000E+00  0.1200E+02
   6.016  0.0000E+00  0.1200E+02
   6.026  0.0000E+00  0.1200E+02
   6.036  0.0000E+00  0.1200E+02
   6.046  0.0000E+00  0.1200E+02
   6.056  0.0000E+00  0.1200E+02
   6.066  0.0000E+00  0.1200E+02
   6.076  0.0000E+00  0.1200E+02
   6.086  0.0000E+00  0.1200E+02
   6.096  0.0000E+00  0.1200E+02
   6.106  0.0000E+00  0.1200E+02
   6.116  0.0000E+00  0.1200E+02
   6.126  0.0000E+00  0.1200E+02
   6.136  0.0000E+00  0.1200E+02
   6.146  0.0000E+00  0.1200E+02
   6.156  0.0000E+00  0.1200E+02
   6.166  0.0000E+00  0.1200E+02
   6.176  0.0000E+00  0.1200E+02
   6.186  0.0000E+00  0.1200E+02
   6.196  0.0000E+00  0.1200E+02
   6.206  0.0000E+00  0.1200E+02
   6.216  0.0000E+00  0.1200E+02
   6.226  0.0000E+00  0.1200E+02
   6.236  0.0000E+00  0.1200E+02
   6.246  0.0000E+00  0.1200E+02
   6.256  0.0000E+00  0.1200E+02
   6.266  0.0000E+00  0.1200E+02
   6.276  0.0000E+00  0.1200E+02
   6.286  0.0000E+00  0.1200E+02
   6.296  0.0000E+00  0.1200E+02
   6.306  0.0000E+00  0.1200E+02
   6.316  0.0000E+00  0.1200E+02
   6.326  0.0000E+00  0.1200E+02
   6.336  0.0000E+00  0.1200E+02
   6.346  0.0000E+00  0.1200E+02
   6.356  0.0000E+00  0.1200E+02
   6.366  0.0000E+00  0.1200E+02
   6.376  0.0000E+00  0.1200E+02
   6.386  0.0000E+00  0.1200E+02
   6.396  0.0000E+00  0.1200E+02
   6.406  0.0000E+00  0.1200E+02
   6.416  0.0000E+00  0.1200E+02
   6.426  0.0000E+00  0.1200E+02
   6.436  0.0000E+00  0.1200E+02
   6.446  0.0000E+00  0.1200E+02
   6.456  0.0000E+00  0.1200E+02
   6.466  0.0000E+00  0.1200E+02
   6.476  0.0000E+00  0.1200E+02
   6.486  0.0000E+00  0.1200E+02
   6.496  0.0000E+00  0.1200E+02
   6.506  0.0000E+00  0.1200E+02
   6.516  0.0000E+00  0.1200E+02
   6.526  0.0000E+00  0.1200E+02
   6.536  0.0000E+00  0.1200E+02
   6.546  0.0000E+00  0.1200E+02
   6.556  0.0000E+00  0.1200E+02
   6.566  0.0000E+00  0.1200E+02
   6.576  0.0000E+00  0.1200E+02
   6.586  0.0000E+00  0.1200E+02
   6.596  0.0000E+00  0.1200E+02
   6.606  0.0000E+00  0.1200E+02
   6.616  0.0000E+00  0.1200E+02
   6.626  0.0000E+00  0.1200E+02
   6.636  0.0000E+00  0.1200E+02
   6.646  0.0000E+00  0.1200E+02
   6.656  0.0000E+00  0.1200E+02
   6.666  0.0000E+00  0.1200E+02
   6.676  0.0000E+00  0.1200E+02
   6.686  0.0000E+00  0.1200E+02
   6.696  0.0000E+00  0.1200E+02
   6.706  0.0000E+00  0.1200E+02
   6.716  0.0000E+00  0.1200E+02
   6.726  0.0000E+00  0.1200E+02
   6.736  0.0000E+00  0.1200E+02
   6.746  0.0000E+00  0.1200E+02
   6.756  0.0000E+00  0.1200E+02
   6.766  0.0000E+00  0.1200E+02
   6.776  0.0000E+00  0.1200E+02
   6.786  0.0000E+00  0.1200E+02
   6.796  0.0000E+00  0.1200E+02
   6.806  0.0000E+00  0.1200E+02
   6.816  0.0000E+00  0.1200E+02
   6.826  0.0000E+00  0.1200E+02
   6.836  0.0000E+00  0.1200E+02
   6.846  0.0000E+00  0.1200E+02
   6.856  0.0000E+00  0.1200E+02
   6.866  0.0000E+00  0.1200E+02
   6.876  0.0000E+00  0.1200E+02
   6.886  0.0000E+00  0.1200E+02
   6.896  0.0000E+00  0.1200E+02
   6.906  0.0000E+00  0.1200E+02
   6.916  0.0000E+00  0.1200E+02
   6.926  0.0000E+00  0.1200E+02
   6.936  0.0000E+00  0.1200E+02
   6.946  0.0000E+00  0.1200E+02
   6.956  0.0000E+00  0.1200E+02
   6.966  0.0000E+00  0.1200E+02
   6.976  0.0000E+00  0.1200E+02
   6.986  0.0000E+00  0.1200E+02
   6.996  0.0000E+00  0.1200E+02
   7.006  0.0000E+00  0.1200E+02
   7.016  0.0000E+00  0.1200E+02
   7.026  0.0000E+00  0.1200E+02
   7.036  0.0000E+00  0.1200E+02
   7.046  0.0000E+00  0.1200E+02
   7.056  0.0000E+00  0.1200E+02
   7.066  0.0000E+00  0.1200E+02
   7.076  0.0000E+00  0.1200E+02
   7.086  0.0000E+00  0.1200E+02
   7.096  0.0000E+00  0.1200E+02
   7.106  0.0000E+00  0.1200E+02
   7.116  0.0000E+00  0.1200E+02
   7.126  0.0000E+00  0.1200E+02
   7.136  0.0000E+00  0.1200E+02
   7.146  0.0000E+00  0.1200E+02
   7.156  0.0000E+00  0.1200E+02
   7.166  0.0000E+00  0.1200E+02
   7.176  0.0000E+00  0.1200E+02
   7.186  0.0000E+00  0.1200E+02
   7.196  0.0000E+00  0.1200E+02
   7.206  0.0000E+00  0.1200E+02
   7.216  0.0000E+00  0.1200E+02
   7.226  0.0000E+00  0.1200E+02
   7.236  0.0000E+00  0.1200E+02
   7.246  0.0000E+00  0.1200E+02
   7.256  0.0000E+00  0.1200E+02
   7.266  0.0000E+00  0.1200E+02
   7.276  0.0000E+00  0.1200E+02
   7.286  0.0000E+00  0.1200E+02
   7.296  0.0000E+00  0.1200E+02
   7.306  0.0000E+00  0.1200E+02
   7.316  0.0000E+00  0.1200E+02
   7.326  0.0000E+00  0.1200E+02
   7.336  0.0000E+00  0.1200E+02
   7.346  0.0000E+00  0.1200E+02
   7.356  0.0000E+00  0.1200E+02
   7.366  0.0000E+00  0.1200E+02
   7.376  0.0000E+00  0.1200E+02
   7.386  0.0000E+00  0.1200E+02
   7.396  0.0000E+00  0.1200E+02
   7.406  0.0000E+00  0.1200E+02
   7.416  0.0000E+00  0.1200E+02
   7.426  0.0000E+00  0.1200E+02
   7.436  0.0000E+00  0.1200E+02
   7.446  0.0000E+00  0.1200E+02
   7.456  0.2766E-04  0.1200E+02
   7.466  0.1612E-03  0.1200E+02
   7.476  0.4052E-03  0.1200E+02
   7.486  0.7599E-03  0.1200E+02
   7.496  0.1225E-02  0.1200E+02
   7.506  0.1801E-02  0.1200E+02
   7.516  0.2487E-02  0.1200E+02
   7.526  0.3284E-02  0.1200E+02
   7.536  0.4192E-02  0.1200E+02
   7.546  0.5210E-02  0.1200E+02
   7.556  0.6338E-02  0.1200E+02
   7.566  0.7578E-02  0.1200E+02
   7.576  0.8927E-02  0.1200E+02
   7.586  0.1039E-01  0.1200E+02
   7.596  0.1196E-01  0.1200E+02
   7.606  0.1364E-01  0.1200E+02
   7.616  0.1543E-01  0.1200E+02
   7.626  0.1733E-01  0.1200E+02
   7.636  0.1935E-01  0.1200E+02
   7.646  0.2147E-01  0.1200E+02
   7.656  0.2371E-01  0.1200E+02
   7.666  0.2605E-01  0.1200E+02
   7.676  0.2851E-01  0.1200E+02
   7.686  0.3107E-01  0.1200E+02
   7.696  0.3375E-01  0.1200E+02
   7.706  0.3654E-01  0.1200E+02
   7.716  0.4047E-01  0.1200E+02
   7.726  0.4476E-01  0.1200E+02
   7.736  0.4903E-01  0.1200E+02
   7.746  0.5329E-01  0.1200E+02
   7.756  0.5752E-01  0.1201E+02
   7.766  0.6173E-01  0.1201E+02
   7.776  0.6593E-01  0.1201E+02
   7.786  0.7011E-01  0.1201E+02
   7.796  0.7427E-01  0.1201E+02
   7.806  0.7841E-01  0.1201E+02
   7.816  0.8253E-01  0.1201E+02
   7.826  0.8663E-01  0.1201E+02
   7.836  0.9071E-01  0.1201E+02
   7.846  0.9478E-01  0.1201E+02
   7.856  0.9882E-01  0.1201E+02
   7.866  0.1028E+00  0.1201E+02
   7.876  0.1069E+00  0.1202E+02
   7.886  0.1108E+00  0.1202E+02
   7.896  0.1149E+00  0.1202E+02
   7.906  0.1189E+00  0.1202E+02
   7.916  0.1228E+00  0.1202E+02
   7.926  0.1265E+00  0.1202E+02
   7.936  0.1302E+00  0.1202E+02
   7.946  0.1338E+00  0.1202E+02
   7.956  0.1373E+00  0.1203E+02
   7.966  0.1407E+00  0.1203E+02
   7.976  0.1439E+00  0.1203E+02
   7.986  0.1471E+00  0.1203E+02
   7.996  0.1502E+00  0.1203E+02
   8.006  0.1532E+00  0.1203E+02
   8.016  0.1561E+00  0.1203E+02
   8.026  0.1589E+00  0.1204E+02
   8.036  0.1590E+00  0.1204E+02
   8.046  0.1591E+00  0.1204E+02
   8.056  0.1595E+00  0.1204E+02
   8.066  0.1600E+00  0.1204E+02
   8.076  0.1607E+00  0.1204E+02
   8.086  0.1616E+00  0.1205E+02
   8.096  0.1626E+00  0.1205E+02
   8.106  0.1639E+00  0.1205E+02
   8.116  0.1653E+00  0.1205E+02
   8.126  0.1669E+00  0.1205E+02
   8.136  0.1686E+00  0.1205E+02
   8.146  0.1706E+00  0.1206E+02
   8.156  0.1726E+00  0.1206E+02
   8.166  0.1746E+00  0.1206E+02
   8.176  0.1766E+00  0.1206E+02
   8.186  0.1786E+00  0.1206E+02
   8.196  0.1807E+00  0.1206E+02
   8.206  0.1828E+00  0.1207E+02
   8.216  0.1849E+00  0.1207E+02
   8.226  0.1870E+00  0.1207E+02
   8.236  0.1892E+00  0.1207E+02
   8.246  0.1913E+00  0.1207E+02
   8.256  0.1935E+00  0.1208E+02
   8.266  0.1957E+00  0.1208E+02
   8.276  0.1979E+00  0.1208E+02
   8.286  0.2001E+00  0.1208E+02
   8.296  0.2024E+00  0.1208E+02
   8.306  0.2046E+00  0.1209E+02
   8.316  0.2069E+00  0.1209E+02
   8.326  0.2092E+00  0.1209E+02
   8.336  0.2116E+00  0.1209E+02
   8.346  0.2139E+00  0.1209E+02
   8.356  0.2163E+00  0.1210E+02
   8.366  0.2186E+00  0.1210E+02
   8.376  0.2210E+00  0.1210E+02
   8.386  0.2234E+00  0.1210E+02
   8.396  0.2257E+00  0.1210E+02
   8.406  0.2281E+00  0.1211E+02
   8.416  0.2305E+00  0.1211E+02
   8.426  0.2331E+00  0.1211E+02
   8.436  0.2360E+00  0.1211E+02
   8.446  0.2392E+00  0.1212E+02
   8.456  0.2428E+00  0.1212E+02
   8.466  0.2466E+00  0.1212E+02
   8.476  0.2508E+00  0.1212E+02
   8.486  0.2554E+00  0.1213E+02
   8.496  0.2602E+00  0.1213E+02
   8.506  0.2654E+00  0.1213E+02
   8.516  0.2709E+00  0.1213E+02
   8.526  0.2767E+00  0.1214E+02
   8.536  0.2812E+00  0.1214E+02
   8.546  0.2847E+00  0.1214E+02
   8.556  0.2882E+00  0.1214E+02
   8.566  0.2917E+00  0.1215E+02
   8.576  0.2953E+00  0.1215E+02
   8.586  0.2988E+00  0.1215E+02
   8.596  0.3024E+00  0.1216E+02
   8.606  0.3060E+00  0.1216E+02
   8.616  0.3097E+00  0.1216E+02
   8.626  0.3134E+00  0.1217E+02
   8.636  0.3170E+00  0.1217E+02
   8.646  0.3208E+00  0.1217E+02
   8.656  0.3245E+00  0.1218E+02
   8.666  0.3290E+00  0.1218E+02
   8.676  0.3352E+00  0.1218E+02
   8.686  0.3414E+00  0.1219E+02
   8.696  0.3476E+00  0.1219E+02
   8.706  0.3538E+00  0.1219E+02
   8.716  0.3599E+00  0.1220E+02
   8.726  0.3659E+00  0.1220E+02
   8.736  0.3715E+00  0.1220E+02
   8.746  0.3770E+00  0.1221E+02
   8.756  0.3823E+00  0.1221E+02
   8.766  0.3874E+00  0.1221E+02
   8.776  0.3925E+00  0.1222E+02
   8.786  0.3973E+00  0.1222E+02
   8.796  0.4021E+00  0.1223E+02
   8.806  0.4067E+00  0.1223E+02
   8.816  0.4111E+00  0.1223E+02
   8.826  0.4155E+00  0.1224E+02
   8.836  0.4197E+00  0.1224E+02
   8.846  0.4254E+00  0.1225E+02
   8.856  0.4322E+00  0.1225E+02
   8.866  0.4391E+00  0.1226E+02
   8.876  0.4460E+00  0.1226E+02
   8.886  0.4530E+00  0.1226E+02
   8.896  0.4454E+00  0.1227E+02
   8.906  0.4516E+00  0.1227E+02
   8.916  0.4580E+00  0.1228E+02
   8.926  0.4645E+00  0.1228E+02
   8.936  0.4711E+00  0.1229E+02
   8.946  0.4778E+00  0.1229E+02
   8.956  0.4846E+00  0.1230E+02
   8.966  0.4916E+00  0.1230E+02
   8.976  0.4986E+00  0.1231E+02
   8.986  0.5058E+00  0.1231E+02
   8.996  0.5131E+00  0.1232E+02
   9.006  0.5205E+00  0.1232E+02
   9.016  0.5281E+00  0.1233E+02
   9.026  0.5357E+00  0.1233E+02
   9.036  0.5435E+00  0.1234E+02
   9.046  0.5513E+00  0.1234E+02
   9.056  0.5593E+00  0.1235E+02
   9.066  0.5674E+00  0.1236E+02
   9.076  0.5756E+00  0.1236E+02
   9.086  0.5839E+00  0.1237E+02
   9.096  0.5924E+00  0.1237E+02
   9.106  0.6009E+00  0.1238E+02
   9.116  0.6096E+00  0.1238E+02
   9.126  0.6186E+00  0.1239E+02
   9.136  0.6281E+00  0.1240E+02
   9.146  0.6380E+00  0.1240E+02
   9.156  0.6483E+00  0.1241E+02
   9.166  0.6590E+00  0.1242E+02
   9.176  0.6702E+00  0.1242E+02
   9.186  0.6817E+00  0.1243E+02
   9.196  0.6937E+00  0.1244E+02
   9.206  0.7061E+00  0.1244E+02
   9.216  0.7189E+00  0.1245E+02
   9.226  0.7326E+00  0.1246E+02
   9.236  0.7525E+00  0.1247E+02
   9.246  0.7733E+00  0.1247E+02
   9.256  0.7949E+00  0.1248E+02
   9.266  0.8174E+00  0.1249E+02
   9.276  0.8407E+00  0.1250E+02
   9.286  0.8649E+00  0.1251E+02
   9.296  0.8900E+00  0.1251E+02
   9.306  0.9159E+00  0.1252E+02
   9.316  0.9426E+00  0.1253E+02
   9.326  0.9703E+00  0.1254E+02
   9.336  0.1015E+01  0.1255E+02
   9.346  0.1041E+01  0.1256E+02
   9.356  0.1002E+01  0.1257E+02
   9.366  0.9892E+00  0.1258E+02
   9.376  0.9932E+00  0.1259E+02
   9.386  0.9958E+00  0.1260E+02
   9.396  0.9978E+00  0.1261E+02
   9.406  0.9993E+00  0.1262E+02
   9.416  0.1000E+01  0.1263E+02
   9.426  0.1001E+01  0.1264E+02
   9.436  0.1001E+01  0.1265E+02
   9.446  0.9999E+00  0.1266E+02
   9.456  0.9988E+00  0.1267E+02
   9.466  0.9973E+00  0.1268E+02
   9.476  0.9954E+00  0.1269E+02
   9.486  0.9930E+00  0.1270E+02
   9.496  0.9902E+00  0.1271E+02
   9.506  0.9869E+00  0.1272E+02
   9.516  0.9832E+00  0.1273E+02
   9.526  0.9790E+00  0.1274E+02
   9.536  0.9731E+00  0.1275E+02
   9.546  0.9663E+00  0.1276E+02
   9.556  0.9586E+00  0.1277E+02
   9.566  0.9502E+00  0.1278E+02
   9.576  0.9417E+00  0.1279E+02
   9.586  0.9354E+00  0.1280E+02
   9.596  0.9292E+00  0.1281E+02
   9.606  0.9232E+00  0.1282E+02
   9.616  0.9175E+00  0.1283E+02
   9.626  0.9119E+00  0.1284E+02
   9.636  0.9066E+00  0.1285E+02
   9.646  0.9014E+00  0.1285E+02
   9.656  0.8965E+00  0.1286E+02
   9.666  0.8917E+00  0.1287E+02
   9.676  0.8866E+00  0.1288E+02
   9.686  0.8812E+00  0.1289E+02
   9.696  0.8787E+00  0.1290E+02
   9.706  0.8830E+00  0.1291E+02
   9.716  0.8915E+00  0.1292E+02
   9.726  0.8868E+00  0.1293E+02
   9.736  0.8807E+00  0.1293E+02
   9.746  0.8733E+00  0.1294E+02
   9.756  0.8644E+00  0.1295E+02
   9.766  0.8510E+00  0.1296E+02
   9.776  0.8349E+00  0.1297E+02
   9.786  0.8192E+00  0.1298E+02
   9.796  0.8038E+00  0.1299E+02
   9.806  0.7887E+00  0.1299E+02
   9.816  0.7740E+00  0.1300E+02
   9.826  0.7596E+00  0.1301E+02
   9.836  0.7457E+00  0.1302E+02
   9.846  0.7320E+00  0.1302E+02
   9.856  0.7187E+00  0.1303E+02
   9.866  0.7056E+00  0.1304E+02
   9.876  0.6926E+00  0.1304E+02
   9.886  0.6796E+00  0.1305E+02
   9.896  0.6666E+00  0.1306E+02
   9.906  0.6537E+00  0.1307E+02
   9.916  0.6408E+00  0.1307E+02
   9.926  0.6280E+00  0.1308E+02
   9.936  0.6151E+00  0.1308E+02
   9.946  0.6024E+00  0.1309E+02
   9.956  0.5896E+00  0.1310E+02
   9.966  0.5769E+00  0.1310E+02
   9.976  0.5643E+00  0.1311E+02
   9.986  0.5518E+00  0.1311E+02
   9.996  0.5395E+00  0.1312E+02
  10.006  0.5274E+00  0.1312E+02
  10.016  0.5156E+00  0.1313E+02
  10.026  0.5040E+00  0.1313E+02
  10.036  0.4926E+00  0.1314E+02
  10.046  0.4814E+00  0.1314E+02
  10.056  0.4707E+00  0.1315E+02
  10.066  0.4635E+00  0.1315E+02
  10.076  0.4565E+00  0.1316E+02
  10.086  0.4497E+00  0.1316E+02
  10.096  0.4431E+00  0.1317E+02
  10.106  0.4367E+00  0.1317E+02
  10.116  0.4305E+00  0.1318E+02
  10.126  0.4239E+00  0.1318E+02
  10.136  0.4175E+00  0.1318E+02
  10.146  0.4113E+00  0.1319E+02
  10.156  0.4053E+00  0.1319E+02
  10.166  0.3995E+00  0.1320E+02
  10.176  0.3939E+00  0.1320E+02
  10.186  0.3884E+00  0.1320E+02
  10.196  0.3832E+00  0.1321E+02
  10.206  0.3781E+00  0.1321E+02
  10.216  0.3732E+00  0.1322E+02
  10.226  0.3685E+00  0.1322E+02
  10.236  0.3640E+00  0.1322E+02
  10.246  0.3597E+00  0.1323E+02
  10.256  0.3556E+00  0.1323E+02
  10.266  0.3517E+00  0.1323E+02
  10.276  0.3480E+00  0.1324E+02
  10.286  0.3446E+00  0.1324E+02
  10.296  0.3414E+00  0.1324E+02
  10.306  0.3384E+00  0.1325E+02
  10.316  0.3360E+00  0.1325E+02
  10.326  0.3344E+00  0.1325E+02
  10.336  0.3329E+00  0.1326E+02
  10.346  0.3315E+00  0.1326E+02
  10.356  0.3302E+00  0.1326E+02
  10.366  0.3289E+00  0.1327E+02
  10.376  0.3276E+00  0.1327E+02
  10.386  0.3265E+00  0.1327E+02
  10.396  0.3254E+00  0.1328E+02
  10.406  0.3243E+00  0.1328E+02
  10.416  0.3234E+00  0.1328E+02
  10.426  0.3225E+00  0.1329E+02
  10.436  0.3217E+00  0.1329E+02
  10.446  0.3210E+00  0.1329E+02
  10.456  0.3205E+00  0.1330E+02
  10.466  0.3200E+00  0.1330E+02
  10.476  0.3197E+00  0.1330E+02
  10.486  0.3194E+00  0.1331E+02
  10.496  0.3193E+00  0.1331E+02
  10.506  0.3192E+00  0.1331E+02
  10.516  0.3193E+00  0.1332E+02
  10.526  0.3195E+00  0.1332E+02
  10.536  0.3198E+00  0.1332E+02
  10.546  0.3201E+00  0.1333E+02
  10.556  0.3206E+00  0.1333E+02
  10.566  0.3212E+00  0.1333E+02
  10.576  0.3219E+00  0.1334E+02
  10.586  0.3227E+00  0.1334E+02
  10.596  0.3237E+00  0.1334E+02
  10.606  0.3247E+00  0.1335E+02
  10.616  0.3258E+00  0.1335E+02
  10.626  0.3272E+00  0.1335E+02
  10.636  0.3300E+00  0.1335E+02
  10.646  0.3353E+00  0.1336E+02
  10.656  0.3410E+00  0.1336E+02
  10.666  0.3466E+00  0.1337E+02
  10.676  0.3521E+00  0.1337E+02
  10.686  0.3576E+00  0.1337E+02
  10.696  0.3630E+00  0.1338E+02
  10.706  0.3683E+00  0.1338E+02
  10.716  0.3736E+00  0.1338E+02
  10.726  0.3787E+00  0.1339E+02
  10.736  0.3838E+00  0.1339E+02
  10.746  0.3888E+00  0.1339E+02
  10.756  0.3938E+00  0.1340E+02
  10.766  0.3987E+00  0.1340E+02
  10.776  0.4035E+00  0.1341E+02
  10.786  0.4083E+00  0.1341E+02
  10.796  0.4128E+00  0.1341E+02
  10.806  0.4172E+00  0.1342E+02
  10.816  0.4215E+00  0.1342E+02
  10.826  0.4258E+00  0.1343E+02
  10.836  0.4299E+00  0.1343E+02
  10.846  0.4341E+00  0.1344E+02
  10.856  0.4381E+00  0.1344E+02
  10.866  0.4421E+00  0.1344E+02
  10.876  0.4460E+00  0.1345E+02
  10.886  0.4499E+00  0.1345E+02
  10.896  0.4536E+00  0.1346E+02
  10.906  0.4573E+00  0.1346E+02
  10.916  0.4609E+00  0.1347E+02
  10.926  0.4643E+00  0.1347E+02
  10.936  0.4677E+00  0.1348E+02
  10.946  0.4710E+00  0.1348E+02
  10.956  0.4742E+00  0.1349E+02
  10.966  0.4772E+00  0.1349E+02
  10.976  0.4802E+00  0.1350E+02
  10.986  0.4830E+00  0.1350E+02
  10.996  0.4854E+00  0.1350E+02
  11.006  0.4877E+00  0.1351E+02
  11.016  0.4896E+00  0.1351E+02
  11.026  0.4913E+00  0.1352E+02
  11.036  0.4928E+00  0.1352E+02
  11.046  0.4941E+00  0.1353E+02
  11.056  0.4953E+00  0.1353E+02
  11.066  0.4962E+00  0.1354E+02
  11.076  0.4970E+00  0.1354E+02
  11.086  0.4976E+00  0.1355E+02
  11.096  0.4980E+00  0.1355E+02
  11.106  0.4983E+00  0.1356E+02
  11.116  0.4983E+00  0.1356E+02
  11.126  0.4982E+00  0.1357E+02
  11.136  0.4979E+00  0.1357E+02
  11.146  0.4974E+00  0.1358E+02
  11.156  0.4971E+00  0.1358E+02
  11.166  0.4969E+00  0.1359E+02
  11.176  0.4968E+00  0.1359E+02
  11.186  0.4968E+00  0.1360E+02
  11.196  0.4969E+00  0.1360E+02
  11.206  0.4971E+00  0.1361E+02
  11.216  0.4974E+00  0.1361E+02
  11.226  0.4979E+00  0.1362E+02
  11.236  0.4984E+00  0.1362E+02
  11.246  0.4990E+00  0.1363E+02
  11.256  0.4998E+00  0.1363E+02
  11.266  0.5006E+00  0.1364E+02
  11.276  0.5016E+00  0.1364E+02
  11.286  0.5027E+00  0.1365E+02
  11.296  0.5028E+00  0.1365E+02
  11.306  0.5029E+00  0.1366E+02
  11.316  0.5030E+00  0.1366E+02
  11.326  0.5031E+00  0.1367E+02
  11.336  0.5032E+00  0.1367E+02
  11.346  0.5033E+00  0.1368E+02
  11.356  0.5035E+00  0.1368E+02
  11.366  0.5036E+00  0.1369E+02
  11.376  0.5037E+00  0.1369E+02
  11.386  0.5039E+00  0.1370E+02
  11.396  0.5040E+00  0.1370E+02
  11.406  0.5043E+00  0.1371E+02
  11.416  0.5047E+00  0.1371E+02
  11.426  0.5050E+00  0.1372E+02
  11.436  0.5053E+00  0.1372E+02
  11.446  0.5057E+00  0.1373E+02
  11.456  0.5060E+00  0.1373E+02
  11.466  0.5064E+00  0.1374E+02
  11.476  0.5067E+00  0.1374E+02
  11.486  0.5070E+00  0.1375E+02
  11.496  0.5074E+00  0.1375E+02
  11.506  0.5077E+00  0.1376E+02
  11.516  0.5088E+00  0.1377E+02
  11.526  0.5098E+00  0.1377E+02
  11.536  0.5108E+00  0.1378E+02
  11.546  0.5116E+00  0.1378E+02
  11.556  0.5123E+00  0.1379E+02
  11.566  0.5130E+00  0.1379E+02
  11.576  0.5135E+00  0.1380E+02
  11.586  0.5140E+00  0.1380E+02
  11.596  0.5145E+00  0.1381E+02
  11.606  0.5151E+00  0.1381E+02
  11.616  0.5156E+00  0.1382E+02
  11.626  0.5161E+00  0.1382E+02
  11.636  0.5166E+00  0.1383E+02
  11.646  0.5171E+00  0.1383E+02
  11.656  0.5176E+00  0.1384E+02
  11.666  0.5181E+00  0.1384E+02
  11.676  0.5185E+00  0.1385E+02
  11.686  0.5190E+00  0.1385E+02
  11.696  0.5194E+00  0.1386E+02
  11.706  0.5198E+00  0.1386E+02
  11.716  0.5203E+00  0.1387E+02
  11.726  0.5207E+00  0.1387E+02
  11.736  0.5210E+00  0.1388E+02
  11.746  0.5214E+00  0.1388E+02
  11.756  0.5222E+00  0.1389E+02
  11.766  0.5235E+00  0.1389E+02
  11.776  0.5255E+00  0.1390E+02
  11.786  0.5280E+00  0.1390E+02
  11.796  0.5308E+00  0.1391E+02
  11.806  0.5341E+00  0.1392E+02
  11.816  0.5378E+00  0.1392E+02
  11.826  0.5419E+00  0.1393E+02
  11.836  0.5464E+00  0.1393E+02
  11.846  0.5511E+00  0.1394E+02
  11.856  0.5552E+00  0.1394E+02
  11.866  0.5586E+00  0.1395E+02
  11.876  0.5613E+00  0.1395E+02
  11.886  0.5628E+00  0.1396E+02
  11.896  0.5630E+00  0.1396E+02
  11.906  0.5619E+00  0.1397E+02
  11.916  0.5593E+00  0.1398E+02
  11.926  0.5554E+00  0.1398E+02
  11.936  0.5500E+00  0.1399E+02
  11.946  0.5434E+00  0.1399E+02
  11.956  0.5407E+00  0.1400E+02
  11.966  0.5372E+00  0.1400E+02
  11.976  0.5316E+00  0.1401E+02
  11.986  0.5239E+00  0.1401E+02
  11.996  0.4990E+00  0.1402E+02
  12.006  0.4980E+00  0.1402E+02
  12.016  0.4970E+00  0.1403E+02
  12.026  0.4961E+00  0.1403E+02
  12.036  0.4952E+00  0.1404E+02
  12.046  0.4944E+00  0.1404E+02
  12.056  0.4936E+00  0.1405E+02
  12.066  0.4929E+00  0.1405E+02
  12.076  0.4921E+00  0.1406E+02
  12.086  0.4915E+00  0.1406E+02
  12.096  0.4908E+00  0.1407E+02
  12.106  0.4902E+00  0.1407E+02
  12.116  0.4897E+00  0.1408E+02
  12.126  0.4891E+00  0.1408E+02
  12.136  0.4886E+00  0.1409E+02
  12.146  0.4882E+00  0.1409E+02
  12.156  0.4878E+00  0.1410E+02
  12.166  0.4874E+00  0.1410E+02
  12.176  0.4870E+00  0.1411E+02
  12.186  0.4867E+00  0.1411E+02
  12.196  0.4865E+00  0.1412E+02
  12.206  0.4862E+00  0.1412E+02
  12.216  0.4860E+00  0.1413E+02
  12.226  0.4859E+00  0.1413E+02
  12.236  0.4857E+00  0.1414E+02
  12.246  0.4856E+00  0.1414E+02
  12.256  0.4855E+00  0.1415E+02
  12.266  0.4854E+00  0.1415E+02
  12.276  0.4853E+00  0.1416E+02
  12.286  0.4852E+00  0.1416E+02
  12.296  0.4851E+00  0.1417E+02
  12.306  0.4851E+00  0.1417E+02
  12.316  0.4851E+00  0.1418E+02
  12.326  0.4850E+00  0.1418E+02
  12.336  0.4850E+00  0.1419E+02
  12.346  0.4850E+00  0.1419E+02
  12.356  0.4849E+00  0.1420E+02
  12.366  0.4848E+00  0.1420E+02
  12.376  0.4847E+00  0.1420E+02
  12.386  0.4847E+00  0.1421E+02
  12.396  0.4846E+00  0.1421E+02
  12.406  0.4845E+00  0.1422E+02
  12.416  0.4843E+00  0.1422E+02
  12.426  0.4842E+00  0.1423E+02
  12.436  0.4841E+00  0.1423E+02
  12.446  0.4839E+00  0.1424E+02
  12.456  0.4838E+00  0.1424E+02
  12.466  0.4836E+00  0.1425E+02
  12.476  0.4834E+00  0.1425E+02
  12.486  0.4832E+00  0.1426E+02
  12.496  0.4830E+00  0.1426E+02
  12.506  0.4828E+00  0.1427E+02
  12.516  0.4826E+00  0.1427E+02
  12.526  0.4824E+00  0.1428E+02
  12.536  0.4822E+00  0.1428E+02
  12.546  0.4819E+00  0.1429E+02
  12.556  0.4817E+00  0.1429E+02
  12.566  0.4814E+00  0.1430E+02
  12.576  0.4811E+00  0.1430E+02
  12.586  0.4808E+00  0.1431E+02
  12.596  0.4805E+00  0.1431E+02
  12.606  0.4802E+00  0.1432E+02
  12.616  0.4799E+00  0.1432E+02
  12.626  0.4796E+00  0.1433E+02
  12.636  0.4793E+00  0.1433E+02
  12.646  0.4790E+00  0.1434E+02
  12.656  0.4787E+00  0.1434E+02
  12.666  0.4784E+00  0.1434E+02
  12.676  0.4782E+00  0.1435E+02
  12.686  0.4780E+00  0.1435E+02
  12.696  0.4779E+00  0.1436E+02
  12.706  0.4777E+00  0.1436E+02
  12.716  0.4776E+00  0.1437E+02
  12.726  0.4776E+00  0.1437E+02
  12.736  0.4775E+00  0.1438E+02
  12.746  0.4775E+00  0.1438E+02
  12.756  0.4776E+00  0.1439E+02
  12.766  0.4776E+00  0.1439E+02
  12.776  0.4777E+00  0.1440E+02
  12.786  0.4778E+00  0.1440E+02
  12.796  0.4779E+00  0.1441E+02
  12.806  0.4780E+00  0.1441E+02
  12.816  0.4782E+00  0.1442E+02
  12.826  0.4784E+00  0.1442E+02
  12.836  0.4786E+00  0.1443E+02
  12.846  0.4789E+00  0.1443E+02
  12.856  0.4792E+00  0.1444E+02
  12.866  0.4797E+00  0.1444E+02
  12.876  0.4803E+00  0.1445E+02
  12.886  0.4808E+00  0.1445E+02
  12.896  0.4814E+00  0.1445E+02
  12.906  0.4820E+00  0.1446E+02
  12.916  0.4824E+00  0.1446E+02
  12.926  0.4825E+00  0.1447E+02
  12.936  0.4824E+00  0.1447E+02
  12.946  0.4821E+00  0.1448E+02
  12.956  0.4815E+00  0.1448E+02
  12.966  0.4807E+00  0.1449E+02
  12.976  0.4681E+00  0.1449E+02
  12.986  0.4678E+00  0.1450E+02
  12.996  0.4674E+00  0.1450E+02
  13.006  0.4671E+00  0.1451E+02
  13.016  0.4667E+00  0.1451E+02
  13.026  0.4664E+00  0.1452E+02
  13.036  0.4660E+00  0.1452E+02
  13.046  0.4657E+00  0.1453E+02
  13.056  0.4653E+00  0.1453E+02
  13.066  0.4650E+00  0.1454E+02
  13.076  0.4646E+00  0.1454E+02
  13.086  0.4643E+00  0.1454E+02
  13.096  0.4639E+00  0.1455E+02
  13.106  0.4636E+00  0.1455E+02
  13.116  0.4632E+00  0.1456E+02
  13.126  0.4629E+00  0.1456E+02
  13.136  0.4626E+00  0.1457E+02
  13.146  0.4622E+00  0.1457E+02
  13.156  0.4619E+00  0.1458E+02
  13.166  0.4615E+00  0.1458E+02
  13.176  0.4612E+00  0.1459E+02
  13.186  0.4608E+00  0.1459E+02
  13.196  0.4605E+00  0.1460E+02
  13.206  0.4602E+00  0.1460E+02
  13.216  0.5498E+00  0.1461E+02
  13.226  0.5276E+00  0.1461E+02
  13.236  0.4741E+00  0.1462E+02
  13.246  0.4742E+00  0.1462E+02
  13.256  0.4741E+00  0.1462E+02
  13.266  0.4740E+00  0.1463E+02
  13.276  0.4738E+00  0.1463E+02
  13.286  0.4734E+00  0.1464E+02
  13.296  0.4729E+00  0.1464E+02
  13.306  0.4724E+00  0.1465E+02
  13.316  0.4717E+00  0.1465E+02
  13.326  0.4709E+00  0.1466E+02
  13.336  0.4701E+00  0.1466E+02
  13.346  0.4691E+00  0.1467E+02
  13.356  0.4680E+00  0.1467E+02
  13.366  0.4668E+00  0.1468E+02
  13.376  0.4656E+00  0.1468E+02
  13.386  0.4642E+00  0.1469E+02
  13.396  0.4627E+00  0.1469E+02
  13.406  0.4612E+00  0.1470E+02
  13.416  0.4596E+00  0.1470E+02
  13.426  0.4578E+00  0.1470E+02
  13.436  0.4564E+00  0.1471E+02
  13.446  0.4552E+00  0.1471E+02
  13.456  0.4540E+00  0.1472E+02
  13.466  0.4528E+00  0.1472E+02
  13.476  0.4517E+00  0.1473E+02
  13.486  0.4505E+00  0.1473E+02
  13.496  0.4493E+00  0.1474E+02
  13.506  0.4482E+00  0.1474E+02
  13.516  0.4471E+00  0.1475E+02
  13.526  0.4459E+00  0.1475E+02
  13.536  0.4448E+00  0.1475E+02
  13.546  0.4437E+00  0.1476E+02
  13.556  0.4426E+00  0.1476E+02
  13.566  0.4415E+00  0.1477E+02
  13.576  0.4404E+00  0.1477E+02
  13.586  0.4393E+00  0.1478E+02
  13.596  0.4382E+00  0.1478E+02
  13.606  0.4371E+00  0.1479E+02
  13.616  0.4360E+00  0.1479E+02
  13.626  0.4350E+00  0.1479E+02
  13.636  0.4339E+00  0.1480E+02
  13.646  0.4329E+00  0.1480E+02
  13.656  0.4317E+00  0.1481E+02
  13.666  0.4305E+00  0.1481E+02
  13.676  0.4293E+00  0.1482E+02
  13.686  0.4281E+00  0.1482E+02
  13.696  0.4269E+00  0.1482E+02
  13.706  0.4258E+00  0.1483E+02
  13.716  0.4246E+00  0.1483E+02
  13.726  0.4234E+00  0.1484E+02
  13.736  0.4223E+00  0.1484E+02
  13.746  0.4212E+00  0.1485E+02
  13.756  0.4202E+00  0.1485E+02
  13.766  0.4191E+00  0.1485E+02
  13.776  0.4181E+00  0.1486E+02
  13.786  0.4172E+00  0.1486E+02
  13.796  0.4162E+00  0.1487E+02
  13.806  0.4153E+00  0.1487E+02
  13.816  0.4144E+00  0.1487E+02
  13.826  0.4135E+00  0.1488E+02
  13.836  0.4129E+00  0.1488E+02
  13.846  0.4129E+00  0.1489E+02
  13.856  0.4129E+00  0.1489E+02
  13.866  0.4128E+00  0.1490E+02
  13.876  0.4126E+00  0.1490E+02
  13.886  0.4124E+00  0.1490E+02
  13.896  0.4121E+00  0.1491E+02
  13.906  0.4118E+00  0.1491E+02
  13.916  0.4113E+00  0.1492E+02
  13.926  0.4108E+00  0.1492E+02
  13.936  0.4103E+00  0.1492E+02
  13.946  0.4097E+00  0.1493E+02
  13.956  0.4090E+00  0.1493E+02
  13.966  0.4082E+00  0.1494E+02
  13.976  0.4074E+00  0.1494E+02
  13.986  0.4065E+00  0.1494E+02
  13.996  0.4054E+00  0.1495E+02
  14.006  0.4043E+00  0.1495E+02
  14.016  0.4029E+00  0.1496E+02
  14.026  0.4015E+00  0.1496E+02
  14.036  0.3998E+00  0.1496E+02
  14.046  0.3980E+00  0.1497E+02
  14.056  0.3960E+00  0.1497E+02
  14.066  0.3939E+00  0.1498E+02
  14.076  0.3915E+00  0.1498E+02
  14.086  0.3889E+00  0.1498E+02
  14.096  0.3860E+00  0.1499E+02
  14.106  0.3830E+00  0.1499E+02
  14.116  0.3801E+00  0.1500E+02
  14.126  0.3771E+00  0.1500E+02
  14.136  0.3742E+00  0.1500E+02
  14.146  0.3712E+00  0.1501E+02
  14.156  0.3682E+00  0.1501E+02
  14.166  0.3654E+00  0.1501E+02
  14.176  0.3631E+00  0.1502E+02
  14.186  0.3608E+00  0.1502E+02
  14.196  0.3585E+00  0.1503E+02
  14.206  0.3563E+00  0.1503E+02
  14.216  0.3542E+00  0.1503E+02
  14.226  0.3522E+00  0.1504E+02
  14.236  0.3503E+00  0.1504E+02
  14.246  0.3497E+00  0.1504E+02
  14.256  0.3491E+00  0.1505E+02
  14.266  0.3486E+00  0.1505E+02
  14.276  0.3480E+00  0.1505E+02
  14.286  0.3475E+00  0.1506E+02
  14.296  0.3469E+00  0.1506E+02
  14.306  0.3463E+00  0.1506E+02
  14.316  0.3458E+00  0.1507E+02
  14.326  0.3453E+00  0.1507E+02
  14.336  0.3447E+00  0.1507E+02
  14.346  0.3442E+00  0.1508E+02
  14.356  0.3437E+00  0.1508E+02
  14.366  0.3431E+00  0.1508E+02
  14.376  0.3427E+00  0.1509E+02
  14.386  0.3422E+00  0.1509E+02
  14.396  0.3418E+00  0.1509E+02
  14.406  0.3415E+00  0.1510E+02
  14.416  0.3412E+00  0.1510E+02
  14.426  0.3409E+00  0.1511E+02
  14.436  0.3406E+00  0.1511E+02
  14.446  0.3404E+00  0.1511E+02
  14.456  0.3403E+00  0.1512E+02
  14.466  0.3401E+00  0.1512E+02
  14.476  0.3401E+00  0.1512E+02
  14.486  0.3402E+00  0.1513E+02
  14.496  0.3402E+00  0.1513E+02
  14.506  0.3404E+00  0.1513E+02
  14.516  0.3402E+00  0.1514E+02
  14.526  0.3398E+00  0.1514E+02
  14.536  0.3394E+00  0.1514E+02
  14.546  0.3389E+00  0.1515E+02
  14.556  0.3385E+00  0.1515E+02
  14.566  0.3381E+00  0.1515E+02
  14.576  0.3377E+00  0.1516E+02
  14.586  0.3373E+00  0.1516E+02
  14.596  0.3369E+00  0.1516E+02
  14.606  0.3364E+00  0.1517E+02
  14.616  0.3360E+00  0.1517E+02
  14.626  0.3356E+00  0.1517E+02
  14.636  0.3352E+00  0.1518E+02
  14.646  0.3347E+00  0.1518E+02
  14.656  0.3343E+00  0.1518E+02
  14.666  0.3339E+00  0.1519E+02
  14.676  0.3335E+00  0.1519E+02
  14.686  0.3330E+00  0.1519E+02
  14.696  0.3326E+00  0.1520E+02
  14.706  0.3322E+00  0.1520E+02
  14.716  0.3318E+00  0.1520E+02
  14.726  0.3314E+00  0.1521E+02
  14.736  0.3310E+00  0.1521E+02
  14.746  0.3306E+00  0.1521E+02
  14.756  0.3302E+00  0.1522E+02
  14.766  0.3298E+00  0.1522E+02
  14.776  0.3295E+00  0.1522E+02
  14.786  0.3291E+00  0.1523E+02
  14.796  0.3287E+00  0.1523E+02
  14.806  0.3284E+00  0.1523E+02
  14.816  0.3280E+00  0.1524E+02
  14.826  0.3277E+00  0.1524E+02
  14.836  0.3274E+00  0.1524E+02
  14.846  0.3270E+00  0.1525E+02
  14.856  0.3267E+00  0.1525E+02
  14.866  0.3264E+00  0.1525E+02
  14.876  0.3261E+00  0.1526E+02
  14.886  0.3258E+00  0.1526E+02
  14.896  0.3255E+00  0.1526E+02
  14.906  0.3252E+00  0.1527E+02
  14.916  0.3249E+00  0.1527E+02
  14.926  0.3247E+00  0.1527E+02
  14.936  0.3245E+00  0.1527E+02
  14.946  0.3244E+00  0.1528E+02
  14.956  0.3243E+00  0.1528E+02
  14.966  0.3243E+00  0.1528E+02
  14.976  0.3244E+00  0.1529E+02
  14.986  0.3245E+00  0.1529E+02
  14.996  0.3246E+00  0.1529E+02
  15.006  0.3248E+00  0.1530E+02
  15.016  0.3251E+00  0.1530E+02
  15.026  0.3254E+00  0.1530E+02
  15.036  0.3257E+00  0.1531E+02
  15.046  0.3262E+00  0.1531E+02
  15.056  0.3268E+00  0.1531E+02
  15.066  0.3237E+00  0.1532E+02
  15.076  0.3196E+00  0.1532E+02
  15.086  0.3194E+00  0.1532E+02
  15.096  0.3194E+00  0.1533E+02
  15.106  0.3196E+00  0.1533E+02
  15.116  0.3199E+00  0.1533E+02
  15.126  0.3846E+00  0.1534E+02
  15.136  0.3060E+00  0.1534E+02
  15.146  0.3065E+00  0.1534E+02
  15.156  0.3070E+00  0.1535E+02
  15.166  0.3075E+00  0.1535E+02
  15.176  0.3081E+00  0.1535E+02
  15.186  0.3087E+00  0.1536E+02
  15.196  0.3086E+00  0.1536E+02
  15.206  0.3079E+00  0.1536E+02
  15.216  0.3071E+00  0.1536E+02
  15.226  0.3063E+00  0.1537E+02
  15.236  0.3055E+00  0.1537E+02
  15.246  0.3046E+00  0.1537E+02
  15.256  0.3038E+00  0.1538E+02
  15.266  0.3029E+00  0.1538E+02
  15.276  0.3020E+00  0.1538E+02
  15.286  0.3011E+00  0.1539E+02
  15.296  0.3002E+00  0.1539E+02
  15.306  0.2992E+00  0.1539E+02
  15.316  0.2983E+00  0.1540E+02
  15.326  0.2973E+00  0.1540E+02
  15.336  0.2963E+00  0.1540E+02
  15.346  0.2952E+00  0.1540E+02
  15.356  0.2942E+00  0.1541E+02
  15.366  0.2931E+00  0.1541E+02
  15.376  0.2920E+00  0.1541E+02
  15.386  0.2909E+00  0.1542E+02
  15.396  0.2898E+00  0.1542E+02
  15.406  0.2886E+00  0.1542E+02
  15.416  0.2875E+00  0.1542E+02
  15.426  0.2864E+00  0.1543E+02
  15.436  0.2853E+00  0.1543E+02
  15.446  0.2842E+00  0.1543E+02
  15.456  0.2831E+00  0.1544E+02
  15.466  0.2821E+00  0.1544E+02
  15.476  0.2810E+00  0.1544E+02
  15.486  0.2800E+00  0.1544E+02
  15.496  0.2789E+00  0.1545E+02
  15.506  0.2779E+00  0.1545E+02
  15.516  0.2769E+00  0.1545E+02
  15.526  0.2760E+00  0.1546E+02
  15.536  0.2750E+00  0.1546E+02
  15.546  0.2740E+00  0.1546E+02
  15.556  0.2731E+00  0.1546E+02
  15.566  0.2723E+00  0.1547E+02
  15.576  0.2717E+00  0.1547E+02
  15.586  0.2710E+00  0.1547E+02
  15.596  0.2704E+00  0.1547E+02
  15.606  0.2697E+00  0.1548E+02
  15.616  0.2691E+00  0.1548E+02
  15.626  0.2685E+00  0.1548E+02
  15.636  0.2679E+00  0.1549E+02
  15.646  0.2672E+00  0.1549E+02
  15.656  0.2666E+00  0.1549E+02
  15.666  0.2660E+00  0.1549E+02
  15.676  0.2654E+00  0.1550E+02
  15.686  0.2649E+00  0.1550E+02
  15.696  0.2643E+00  0.1550E+02
  15.706  0.2637E+00  0.1550E+02
  15.716  0.2631E+00  0.1551E+02
  15.726  0.2626E+00  0.1551E+02
  15.736  0.2620E+00  0.1551E+02
  15.746  0.2614E+00  0.1551E+02
  15.756  0.2609E+00  0.1552E+02
  15.766  0.2603E+00  0.1552E+02
  15.776  0.2598E+00  0.1552E+02
  15.786  0.2593E+00  0.1552E+02
  15.796  0.2587E+00  0.1553E+02
  15.806  0.2582E+00  0.1553E+02
  15.816  0.2577E+00  0.1553E+02
  15.826  0.2572E+00  0.1554E+02
  15.836  0.2567E+00  0.1554E+02
  15.846  0.2562E+00  0.1554E+02
  15.856  0.2557E+00  0.1554E+02
  15.866  0.2552E+00  0.1555E+02
  15.876  0.2547E+00  0.1555E+02
  15.886  0.2543E+00  0.1555E+02
  15.896  0.2538E+00  0.1555E+02
  15.906  0.2533E+00  0.1556E+02
  15.916  0.2529E+00  0.1556E+02
  15.926  0.2524E+00  0.1556E+02
  15.936  0.2520E+00  0.1556E+02
  15.946  0.2516E+00  0.1557E+02
  15.956  0.2511E+00  0.1557E+02
  15.966  0.2507E+00  0.1557E+02
  15.976  0.2503E+00  0.1557E+02
  15.986  0.2499E+00  0.1558E+02
  15.996  0.2494E+00  0.1558E+02
  16.006  0.2490E+00  0.1558E+02
  16.016  0.2486E+00  0.1558E+02
  16.026  0.2482E+00  0.1559E+02
  16.036  0.2478E+00  0.1559E+02
  16.046  0.2474E+00  0.1559E+02
  16.056  0.2470E+00  0.1559E+02
  16.066  0.2466E+00  0.1560E+02
  16.076  0.2462E+00  0.1560E+02
  16.086  0.2458E+00  0.1560E+02
  16.096  0.2454E+00  0.1560E+02
  16.106  0.2450E+00  0.1561E+02
  16.116  0.2446E+00  0.1561E+02
  16.126  0.2442E+00  0.1561E+02
  16.136  0.2438E+00  0.1561E+02
  16.146  0.2434E+00  0.1562E+02
  16.156  0.2430E+00  0.1562E+02
  16.166  0.2426E+00  0.1562E+02
  16.176  0.2422E+00  0.1562E+02
  16.186  0.2418E+00  0.1562E+02
  16.196  0.2414E+00  0.1563E+02
  16.206  0.2410E+00  0.1563E+02
  16.216  0.2406E+00  0.1563E+02
  16.226  0.2402E+00  0.1563E+02
  16.236  0.2398E+00  0.1564E+02
  16.246  0.2394E+00  0.1564E+02
  16.256  0.2390E+00  0.1564E+02
  16.266  0.2388E+00  0.1564E+02
  16.276  0.2389E+00  0.1565E+02
  16.286  0.2389E+00  0.1565E+02
  16.296  0.2390E+00  0.1565E+02
  16.306  0.2390E+00  0.1565E+02
  16.316  0.2390E+00  0.1566E+02
  16.326  0.2411E+00  0.1566E+02
  16.336  0.2474E+00  0.1566E+02
  16.346  0.2545E+00  0.1566E+02
  16.356  0.2567E+00  0.1567E+02
  16.366  0.2587E+00  0.1567E+02
  16.376  0.2605E+00  0.1567E+02
  16.386  0.2621E+00  0.1567E+02
  16.396  0.2635E+00  0.1568E+02
  16.406  0.2647E+00  0.1568E+02
  16.416  0.2656E+00  0.1568E+02
  16.426  0.2663E+00  0.1568E+02
  16.436  0.2668E+00  0.1569E+02
  16.446  0.2671E+00  0.1569E+02
  16.456  0.2673E+00  0.1569E+02
  16.466  0.2679E+00  0.1570E+02
  16.476  0.2682E+00  0.1570E+02
  16.486  0.2682E+00  0.1570E+02
  16.496  0.2679E+00  0.1570E+02
  16.506  0.2674E+00  0.1571E+02
  16.516  0.2666E+00  0.1571E+02
  16.526  0.2655E+00  0.1571E+02
  16.536  0.2642E+00  0.1571E+02
  16.546  0.2625E+00  0.1572E+02
  16.556  0.2604E+00  0.1572E+02
  16.566  0.2580E+00  0.1572E+02
  16.576  0.2553E+00  0.1572E+02
  16.586  0.2523E+00  0.1573E+02
  16.596  0.2490E+00  0.1573E+02
  16.606  0.2454E+00  0.1573E+02
  16.616  0.2440E+00  0.1573E+02
  16.626  0.2426E+00  0.1574E+02
  16.636  0.2410E+00  0.1574E+02
  16.646  0.2394E+00  0.1574E+02
  16.656  0.2376E+00  0.1574E+02
  16.666  0.2358E+00  0.1575E+02
  16.676  0.2340E+00  0.1575E+02
  16.686  0.2320E+00  0.1575E+02
  16.696  0.2300E+00  0.1575E+02
  16.706  0.2278E+00  0.1576E+02
  16.716  0.2256E+00  0.1576E+02
  16.726  0.2233E+00  0.1576E+02
  16.736  0.2209E+00  0.1576E+02
  16.746  0.2186E+00  0.1576E+02
  16.756  0.2172E+00  0.1577E+02
  16.766  0.2159E+00  0.1577E+02
  16.776  0.2146E+00  0.1577E+02
  16.786  0.2133E+00  0.1577E+02
  16.796  0.2120E+00  0.1578E+02
  16.806  0.2107E+00  0.1578E+02
  16.816  0.2094E+00  0.1578E+02
  16.826  0.2081E+00  0.1578E+02
  16.836  0.2068E+00  0.1578E+02
  16.846  0.2055E+00  0.1579E+02
  16.856  0.2043E+00  0.1579E+02
  16.866  0.2032E+00  0.1579E+02
  16.876  0.2020E+00  0.1579E+02
  16.886  0.2008E+00  0.1579E+02
  16.896  0.1996E+00  0.1580E+02
  16.906  0.1985E+00  0.1580E+02
  16.916  0.1973E+00  0.1580E+02
  16.926  0.1961E+00  0.1580E+02
  16.936  0.1949E+00  0.1580E+02
  16.946  0.1937E+00  0.1581E+02
  16.956  0.1925E+00  0.1581E+02
  16.966  0.1913E+00  0.1581E+02
  16.976  0.1901E+00  0.1581E+02
  16.986  0.1889E+00  0.1581E+02
  16.996  0.1877E+00  0.1582E+02
  17.006  0.1865E+00  0.1582E+02
  17.016  0.1853E+00  0.1582E+02
  17.026  0.1842E+00  0.1582E+02
  17.036  0.1830E+00  0.1582E+02
  17.046  0.1819E+00  0.1582E+02
  17.056  0.1807E+00  0.1583E+02
  17.066  0.1796E+00  0.1583E+02
  17.076  0.1784E+00  0.1583E+02
  17.086  0.1773E+00  0.1583E+02
  17.096  0.1761E+00  0.1583E+02
  17.106  0.1749E+00  0.1583E+02
  17.116  0.1738E+00  0.1584E+02
  17.126  0.1726E+00  0.1584E+02
  17.136  0.1714E+00  0.1584E+02
  17.146  0.1703E+00  0.1584E+02
  17.156  0.1691E+00  0.1584E+02
  17.166  0.1679E+00  0.1585E+02
  17.176  0.1667E+00  0.1585E+02
  17.186  0.1655E+00  0.1585E+02
  17.196  0.1643E+00  0.1585E+02
  17.206  0.1631E+00  0.1585E+02
  17.216  0.1619E+00  0.1585E+02
  17.226  0.1607E+00  0.1586E+02
  17.236  0.1595E+00  0.1586E+02
  17.246  0.1583E+00  0.1586E+02
  17.256  0.1571E+00  0.1586E+02
  17.266  0.1559E+00  0.1586E+02
  17.276  0.1546E+00  0.1586E+02
  17.286  0.1534E+00  0.1586E+02
  17.296  0.1522E+00  0.1587E+02
  17.306  0.1510E+00  0.1587E+02
  17.316  0.1498E+00  0.1587E+02
  17.326  0.1485E+00  0.1587E+02
  17.336  0.1473E+00  0.1587E+02
  17.346  0.1461E+00  0.1587E+02
  17.356  0.1449E+00  0.1587E+02
  17.366  0.1438E+00  0.1588E+02
  17.376  0.1426E+00  0.1588E+02
  17.386  0.1414E+00  0.1588E+02
  17.396  0.1402E+00  0.1588E+02
  17.406  0.1390E+00  0.1588E+02
  17.416  0.1379E+00  0.1588E+02
  17.426  0.1367E+00  0.1588E+02
  17.436  0.1355E+00  0.1589E+02
  17.446  0.1343E+00  0.1589E+02
  17.456  0.1331E+00  0.1589E+02
  17.466  0.1319E+00  0.1589E+02
  17.476  0.1308E+00  0.1589E+02
  17.486  0.1296E+00  0.1589E+02
  17.496  0.1284E+00  0.1589E+02
  17.506  0.1272E+00  0.1590E+02
  17.516  0.1260E+00  0.1590E+02
  17.526  0.1248E+00  0.1590E+02
  17.536  0.1236E+00  0.1590E+02
  17.546  0.1224E+00  0.1590E+02
  17.556  0.1213E+00  0.1590E+02
  17.566  0.1201E+00  0.1590E+02
  17.576  0.1189E+00  0.1590E+02
  17.586  0.1177E+00  0.1591E+02
  17.596  0.1165E+00  0.1591E+02
  17.606  0.1153E+00  0.1591E+02
  17.616  0.1141E+00  0.1591E+02
  17.626  0.1129E+00  0.1591E+02
  17.636  0.1117E+00  0.1591E+02
  17.646  0.1105E+00  0.1591E+02
  17.656  0.1093E+00  0.1591E+02
  17.666  0.1082E+00  0.1591E+02
  17.676  0.1070E+00  0.1592E+02
  17.686  0.1059E+00  0.1592E+02
  17.696  0.1048E+00  0.1592E+02
  17.706  0.1037E+00  0.1592E+02
  17.716  0.1025E+00  0.1592E+02
  17.726  0.1014E+00  0.1592E+02
  17.736  0.1004E+00  0.1592E+02
  17.746  0.9931E-01  0.1592E+02
  17.756  0.9830E-01  0.1592E+02
  17.766  0.9731E-01  0.1592E+02
  17.776  0.9635E-01  0.1593E+02
  17.786  0.9543E-01  0.1593E+02
  17.796  0.9453E-01  0.1593E+02
  17.806  0.9366E-01  0.1593E+02
  17.816  0.9282E-01  0.1593E+02
  17.826  0.9201E-01  0.1593E+02
  17.836  0.9121E-01  0.1593E+02
  17.846  0.9042E-01  0.1593E+02
  17.856  0.8964E-01  0.1593E+02
  17.866  0.8887E-01  0.1593E+02
  17.876  0.8811E-01  0.1593E+02
  17.886  0.8736E-01  0.1594E+02
  17.896  0.8662E-01  0.1594E+02
  17.906  0.8589E-01  0.1594E+02
  17.916  0.8516E-01  0.1594E+02
  17.926  0.8445E-01  0.1594E+02
  17.936  0.8476E-01  0.1594E+02
  17.946  0.8529E-01  0.1594E+02
  17.956  0.8571E-01  0.1594E+02
  17.966  0.8601E-01  0.1594E+02
  17.976  0.8620E-01  0.1594E+02
  17.986  0.8629E-01  0.1594E+02
  17.996  0.8626E-01  0.1594E+02
  18.006  0.8612E-01  0.1595E+02
  18.016  0.8587E-01  0.1595E+02
  18.026  0.8551E-01  0.1595E+02
  18.036  0.8503E-01  0.1595E+02
  18.046  0.8450E-01  0.1595E+02
  18.056  0.8409E-01  0.1595E+02
  18.066  0.8355E-01  0.1595E+02
  18.076  0.8288E-01  0.1595E+02
  18.086  0.8210E-01  0.1595E+02
  18.096  0.8118E-01  0.1595E+02
  18.106  0.8014E-01  0.1595E+02
  18.116  0.7898E-01  0.1596E+02
  18.126  0.7768E-01  0.1596E+02
  18.136  0.7626E-01  0.1596E+02
  18.146  0.7470E-01  0.1596E+02
  18.156  0.7301E-01  0.1596E+02
  18.166  0.7120E-01  0.1596E+02
  18.176  0.6925E-01  0.1596E+02
  18.186  0.6717E-01  0.1596E+02
  18.196  0.6496E-01  0.1596E+02
  18.206  0.6342E-01  0.1596E+02
  18.216  0.6279E-01  0.1596E+02
  18.226  0.6216E-01  0.1596E+02
  18.236  0.6153E-01  0.1596E+02
  18.246  0.6088E-01  0.1596E+02
  18.256  0.6023E-01  0.1596E+02
  18.266  0.5957E-01  0.1597E+02
  18.276  0.5890E-01  0.1597E+02
  18.286  0.5823E-01  0.1597E+02
  18.296  0.5754E-01  0.1597E+02
  18.306  0.5685E-01  0.1597E+02
  18.316  0.5616E-01  0.1597E+02
  18.326  0.5545E-01  0.1597E+02
  18.336  0.5474E-01  0.1597E+02
  18.346  0.5402E-01  0.1597E+02
  18.356  0.5329E-01  0.1597E+02
  18.366  0.5255E-01  0.1597E+02
  18.376  0.5181E-01  0.1597E+02
  18.386  0.5106E-01  0.1597E+02
  18.396  0.5030E-01  0.1597E+02
  18.406  0.4953E-01  0.1597E+02
  18.416  0.4876E-01  0.1597E+02
  18.426  0.4798E-01  0.1597E+02
  18.436  0.4719E-01  0.1597E+02
  18.446  0.4639E-01  0.1597E+02
  18.456  0.4559E-01  0.1598E+02
  18.466  0.4478E-01  0.1598E+02
  18.476  0.4396E-01  0.1598E+02
  18.486  0.4313E-01  0.1598E+02
  18.496  0.4229E-01  0.1598E+02
  18.506  0.4145E-01  0.1598E+02
  18.516  0.4060E-01  0.1598E+02
  18.526  0.3974E-01  0.1598E+02
  18.536  0.3888E-01  0.1598E+02
  18.546  0.3801E-01  0.1598E+02
  18.556  0.3734E-01  0.1598E+02
  18.566  0.3691E-01  0.1598E+02
  18.576  0.3648E-01  0.1598E+02
  18.586  0.3606E-01  0.1598E+02
  18.596  0.3564E-01  0.1598E+02
  18.606  0.3523E-01  0.1598E+02
  18.616  0.3483E-01  0.1598E+02
  18.626  0.3443E-01  0.1598E+02
  18.636  0.3404E-01  0.1598E+02
  18.646  0.3365E-01  0.1598E+02
  18.656  0.3327E-01  0.1598E+02
  18.666  0.3289E-01  0.1598E+02
  18.676  0.3253E-01  0.1598E+02
  18.686  0.3216E-01  0.1598E+02
  18.696  0.3181E-01  0.1598E+02
  18.706  0.3145E-01  0.1598E+02
  18.716  0.3111E-01  0.1598E+02
  18.726  0.3077E-01  0.1599E+02
  18.736  0.3044E-01  0.1599E+02
  18.746  0.3011E-01  0.1599E+02
  18.756  0.2979E-01  0.1599E+02
  18.766  0.2947E-01  0.1599E+02
  18.776  0.2916E-01  0.1599E+02
  18.786  0.2886E-01  0.1599E+02
  18.796  0.2856E-01  0.1599E+02
  18.806  0.2827E-01  0.1599E+02
  18.816  0.2799E-01  0.1599E+02
  18.826  0.2771E-01  0.1599E+02
  18.836  0.2743E-01  0.1599E+02
  18.846  0.2717E-01  0.1599E+02
  18.856  0.2691E-01  0.1599E+02
  18.866  0.2666E-01  0.1599E+02
  18.876  0.2641E-01  0.1599E+02
  18.886  0.2616E-01  0.1599E+02
  18.896  0.2591E-01  0.1599E+02
  18.906  0.2565E-01  0.1599E+02
  18.916  0.2539E-01  0.1599E+02
  18.926  0.2513E-01  0.1599E+02
  18.936  0.2487E-01  0.1599E+02
  18.946  0.2460E-01  0.1599E+02
  18.956  0.2433E-01  0.1599E+02
  18.966  0.2406E-01  0.1599E+02
  18.976  0.2379E-01  0.1599E+02
  18.986  0.2352E-01  0.1599E+02
  18.996  0.2324E-01  0.1599E+02
  19.006  0.2296E-01  0.1599E+02
  19.016  0.2268E-01  0.1599E+02
  19.026  0.2240E-01  0.1599E+02
  19.036  0.2211E-01  0.1599E+02
  19.046  0.2183E-01  0.1599E+02
  19.056  0.2154E-01  0.1599E+02
  19.066  0.2124E-01  0.1599E+02
  19.076  0.2094E-01  0.1599E+02
  19.086  0.2064E-01  0.1599E+02
  19.096  0.2033E-01  0.1599E+02
  19.106  0.2002E-01  0.1599E+02
  19.116  0.1971E-01  0.1599E+02
  19.126  0.1939E-01  0.1600E+02
  19.136  0.1907E-01  0.1600E+02
  19.146  0.1874E-01  0.1600E+02
  19.156  0.1841E-01  0.1600E+02
  19.166  0.1808E-01  0.1600E+02
  19.176  0.1774E-01  0.1600E+02
  19.186  0.1740E-01  0.1600E+02
  19.196  0.1706E-01  0.1600E+02
  19.206  0.1671E-01  0.1600E+02
  19.216  0.1636E-01  0.1600E+02
  19.226  0.1600E-01  0.1600E+02
  19.236  0.1564E-01  0.1600E+02
  19.246  0.1528E-01  0.1600E+02
  19.256  0.1491E-01  0.1600E+02
  19.266  0.1454E-01  0.1600E+02
  19.276  0.1416E-01  0.1600E+02
  19.286  0.1378E-01  0.1600E+02
  19.296  0.1340E-01  0.1600E+02
  19.306  0.1302E-01  0.1600E+02
  19.316  0.1262E-01  0.1600E+02
  19.326  0.1223E-01  0.1600E+02
  19.336  0.1183E-01  0.1600E+02
  19.346  0.1143E-01  0.1600E+02
  19.356  0.1103E-01  0.1600E+02
  19.366  0.1062E-01  0.1600E+02
  19.376  0.1020E-01  0.1600E+02
  19.386  0.9786E-02  0.1600E+02
  19.396  0.9365E-02  0.1600E+02
  19.406  0.8940E-02  0.1600E+02
  19.416  0.8512E-02  0.1600E+02
  19.426  0.8080E-02  0.1600E+02
  19.436  0.7643E-02  0.1600E+02
  19.446  0.7204E-02  0.1600E+02
  19.456  0.6760E-02  0.1600E+02
  19.466  0.6264E-02  0.1600E+02
  19.476  0.5576E-02  0.1600E+02
  19.486  0.4928E-02  0.1600E+02
  19.496  0.4320E-02  0.1600E+02
  19.506  0.3752E-02  0.1600E+02
  19.516  0.3224E-02  0.1600E+02
  19.526  0.2737E-02  0.1600E+02
  19.536  0.2289E-02  0.1600E+02
  19.546  0.1881E-02  0.1600E+02
  19.556  0.1513E-02  0.1600E+02
  19.566  0.1185E-02  0.1600E+02
  19.576  0.8970E-03  0.1600E+02
  19.586  0.6491E-03  0.1600E+02
  19.596  0.4413E-03  0.1600E+02
  19.606  0.2734E-03  0.1600E+02
  19.616  0.1455E-03  0.1600E+02
  19.626  0.5759E-04  0.1600E+02
  19.636  0.9714E-05  0.1600E+02
