#  E (eV)   dos(E)     Int dos(E) EFermi =   11.935 eV
  -5.424  0.0000E+00  0.0000E+00
  -5.414  0.9468E+00  0.4636E-02
  -5.404  0.1702E+01  0.1835E-01
  -5.394  0.2280E+01  0.3849E-01
  -5.384  0.2833E+01  0.6371E-01
  -5.374  0.3372E+01  0.9507E-01
  -5.364  0.4013E+01  0.1319E+00
  -5.354  0.4684E+01  0.1756E+00
  -5.344  0.5436E+01  0.2260E+00
  -5.334  0.6327E+01  0.2848E+00
  -5.324  0.7361E+01  0.3524E+00
  -5.314  0.9814E+01  0.4395E+00
  -5.304  0.1168E+02  0.5478E+00
  -5.294  0.1394E+02  0.6758E+00
  -5.284  0.1640E+02  0.8268E+00
  -5.274  0.2037E+02  0.1008E+01
  -5.264  0.3671E+02  0.1278E+01
  -5.254  0.3702E+02  0.1641E+01
  -5.244  0.3495E+02  0.2028E+01
  -5.234  0.1523E+02  0.2262E+01
  -5.224  0.2569E+02  0.2441E+01
  -5.214  0.3580E+02  0.2744E+01
  -5.204  0.3988E+02  0.3133E+01
  -5.194  0.4288E+02  0.3538E+01
  -5.184  0.2734E+02  0.3889E+01
  -5.174  0.1917E+02  0.4120E+01
  -5.164  0.1474E+02  0.4285E+01
  -5.154  0.1191E+02  0.4418E+01
  -5.144  0.1111E+02  0.4532E+01
  -5.134  0.1222E+02  0.4647E+01
  -5.124  0.1344E+02  0.4775E+01
  -5.114  0.2018E+02  0.4945E+01
  -5.104  0.2463E+02  0.5170E+01
  -5.094  0.2257E+02  0.5403E+01
  -5.084  0.2082E+02  0.5627E+01
  -5.074  0.1475E+02  0.5791E+01
  -5.064  0.1424E+02  0.5936E+01
  -5.054  0.1546E+02  0.6080E+01
  -5.044  0.2363E+02  0.6277E+01
  -5.034  0.2795E+02  0.6528E+01
  -5.024  0.3798E+02  0.6866E+01
  -5.014  0.2634E+02  0.7177E+01
  -5.004  0.2381E+02  0.7423E+01
  -4.994  0.2377E+02  0.7659E+01
  -4.984  0.2470E+02  0.7907E+01
  -4.974  0.2365E+02  0.8146E+01
  -4.964  0.2345E+02  0.8382E+01
  -4.954  0.2341E+02  0.8617E+01
  -4.944  0.2527E+02  0.8864E+01
  -4.934  0.3279E+02  0.9138E+01
  -4.924  0.2736E+02  0.9485E+01
  -4.914  0.1608E+02  0.9698E+01
  -4.904  0.1219E+02  0.9836E+01
  -4.894  0.1029E+02  0.9946E+01
  -4.884  0.0000E+00  0.1000E+02
  -4.874  0.0000E+00  0.1000E+02
  -4.864  0.0000E+00  0.1000E+02
  -4.854  0.0000E+00  0.1000E+02
  -4.844  0.0000E+00  0.1000E+02
  -4.834  0.0000E+00  0.1000E+02
  -4.824  0.0000E+00  0.1000E+02
  -4.814  0.0000E+00  0.1000E+02
  -4.804  0.0000E+00  0.1000E+02
  -4.794  0.0000E+00  0.1000E+02
  -4.784  0.0000E+00  0.1000E+02
  -4.774  0.0000E+00  0.1000E+02
  -4.764  0.0000E+00  0.1000E+02
  -4.754  0.0000E+00  0.1000E+02
  -4.744  0.0000E+00  0.1000E+02
  -4.734  0.0000E+00  0.1000E+02
  -4.724  0.0000E+00  0.1000E+02
  -4.714  0.0000E+00  0.1000E+02
  -4.704  0.0000E+00  0.1000E+02
  -4.694  0.0000E+00  0.1000E+02
  -4.684  0.0000E+00  0.1000E+02
  -4.674  0.0000E+00  0.1000E+02
  -4.664  0.0000E+00  0.1000E+02
  -4.654  0.0000E+00  0.1000E+02
  -4.644  0.0000E+00  0.1000E+02
  -4.634  0.0000E+00  0.1000E+02
  -4.624  0.0000E+00  0.1000E+02
  -4.614  0.0000E+00  0.1000E+02
  -4.604  0.0000E+00  0.1000E+02
  -4.594  0.0000E+00  0.1000E+02
  -4.584  0.0000E+00  0.1000E+02
  -4.574  0.0000E+00  0.1000E+02
  -4.564  0.0000E+00  0.1000E+02
  -4.554  0.0000E+00  0.1000E+02
  -4.544  0.0000E+00  0.1000E+02
  -4.534  0.0000E+00  0.1000E+02
  -4.524  0.0000E+00  0.1000E+02
  -4.514  0.0000E+00  0.1000E+02
  -4.504  0.0000E+00  0.1000E+02
  -4.494  0.0000E+00  0.1000E+02
  -4.484  0.0000E+00  0.1000E+02
  -4.474  0.0000E+00  0.1000E+02
  -4.464  0.0000E+00  0.1000E+02
  -4.454  0.0000E+00  0.1000E+02
  -4.444  0.0000E+00  0.1000E+02
  -4.434  0.0000E+00  0.1000E+02
  -4.424  0.0000E+00  0.1000E+02
  -4.414  0.0000E+00  0.1000E+02
  -4.404  0.0000E+00  0.1000E+02
  -4.394  0.0000E+00  0.1000E+02
  -4.384  0.0000E+00  0.1000E+02
  -4.374  0.0000E+00  0.1000E+02
  -4.364  0.0000E+00  0.1000E+02
  -4.354  0.0000E+00  0.1000E+02
  -4.344  0.0000E+00  0.1000E+02
  -4.334  0.0000E+00  0.1000E+02
  -4.324  0.0000E+00  0.1000E+02
  -4.314  0.0000E+00  0.1000E+02
  -4.304  0.0000E+00  0.1000E+02
  -4.294  0.0000E+00  0.1000E+02
  -4.284  0.0000E+00  0.1000E+02
  -4.274  0.0000E+00  0.1000E+02
  -4.264  0.0000E+00  0.1000E+02
  -4.254  0.0000E+00  0.1000E+02
  -4.244  0.0000E+00  0.1000E+02
  -4.234  0.0000E+00  0.1000E+02
  -4.224  0.0000E+00  0.1000E+02
  -4.214  0.0000E+00  0.1000E+02
  -4.204  0.0000E+00  0.1000E+02
  -4.194  0.0000E+00  0.1000E+02
  -4.184  0.0000E+00  0.1000E+02
  -4.174  0.0000E+00  0.1000E+02
  -4.164  0.0000E+00  0.1000E+02
  -4.154  0.0000E+00  0.1000E+02
  -4.144  0.0000E+00  0.1000E+02
  -4.134  0.0000E+00  0.1000E+02
  -4.124  0.0000E+00  0.1000E+02
  -4.114  0.0000E+00  0.1000E+02
  -4.104  0.0000E+00  0.1000E+02
  -4.094  0.0000E+00  0.1000E+02
  -4.084  0.0000E+00  0.1000E+02
  -4.074  0.0000E+00  0.1000E+02
  -4.064  0.0000E+00  0.1000E+02
  -4.054  0.0000E+00  0.1000E+02
  -4.044  0.0000E+00  0.1000E+02
  -4.034  0.0000E+00  0.1000E+02
  -4.024  0.0000E+00  0.1000E+02
  -4.014  0.0000E+00  0.1000E+02
  -4.004  0.0000E+00  0.1000E+02
  -3.994  0.0000E+00  0.1000E+02
  -3.984  0.0000E+00  0.1000E+02
  -3.974  0.0000E+00  0.1000E+02
  -3.964  0.0000E+00  0.1000E+02
  -3.954  0.0000E+00  0.1000E+02
  -3.944  0.0000E+00  0.1000E+02
  -3.934  0.0000E+00  0.1000E+02
  -3.924  0.0000E+00  0.1000E+02
  -3.914  0.0000E+00  0.1000E+02
  -3.904  0.0000E+00  0.1000E+02
  -3.894  0.0000E+00  0.1000E+02
  -3.884  0.0000E+00  0.1000E+02
  -3.874  0.0000E+00  0.1000E+02
  -3.864  0.0000E+00  0.1000E+02
  -3.854  0.0000E+00  0.1000E+02
  -3.844  0.0000E+00  0.1000E+02
  -3.834  0.0000E+00  0.1000E+02
  -3.824  0.0000E+00  0.1000E+02
  -3.814  0.0000E+00  0.1000E+02
  -3.804  0.0000E+00  0.1000E+02
  -3.794  0.0000E+00  0.1000E+02
  -3.784  0.0000E+00  0.1000E+02
  -3.774  0.0000E+00  0.1000E+02
  -3.764  0.0000E+00  0.1000E+02
  -3.754  0.0000E+00  0.1000E+02
  -3.744  0.0000E+00  0.1000E+02
  -3.734  0.0000E+00  0.1000E+02
  -3.724  0.0000E+00  0.1000E+02
  -3.714  0.0000E+00  0.1000E+02
  -3.704  0.0000E+00  0.1000E+02
  -3.694  0.0000E+00  0.1000E+02
  -3.684  0.0000E+00  0.1000E+02
  -3.674  0.0000E+00  0.1000E+02
  -3.664  0.0000E+00  0.1000E+02
  -3.654  0.0000E+00  0.1000E+02
  -3.644  0.0000E+00  0.1000E+02
  -3.634  0.0000E+00  0.1000E+02
  -3.624  0.0000E+00  0.1000E+02
  -3.614  0.0000E+00  0.1000E+02
  -3.604  0.0000E+00  0.1000E+02
  -3.594  0.0000E+00  0.1000E+02
  -3.584  0.0000E+00  0.1000E+02
  -3.574  0.0000E+00  0.1000E+02
  -3.564  0.0000E+00  0.1000E+02
  -3.554  0.0000E+00  0.1000E+02
  -3.544  0.0000E+00  0.1000E+02
  -3.534  0.0000E+00  0.1000E+02
  -3.524  0.0000E+00  0.1000E+02
  -3.514  0.0000E+00  0.1000E+02
  -3.504  0.0000E+00  0.1000E+02
  -3.494  0.0000E+00  0.1000E+02
  -3.484  0.0000E+00  0.1000E+02
  -3.474  0.0000E+00  0.1000E+02
  -3.464  0.0000E+00  0.1000E+02
  -3.454  0.0000E+00  0.1000E+02
  -3.444  0.0000E+00  0.1000E+02
  -3.434  0.0000E+00  0.1000E+02
  -3.424  0.0000E+00  0.1000E+02
  -3.414  0.0000E+00  0.1000E+02
  -3.404  0.0000E+00  0.1000E+02
  -3.394  0.0000E+00  0.1000E+02
  -3.384  0.0000E+00  0.1000E+02
  -3.374  0.0000E+00  0.1000E+02
  -3.364  0.0000E+00  0.1000E+02
  -3.354  0.0000E+00  0.1000E+02
  -3.344  0.0000E+00  0.1000E+02
  -3.334  0.0000E+00  0.1000E+02
  -3.324  0.0000E+00  0.1000E+02
  -3.314  0.0000E+00  0.1000E+02
  -3.304  0.0000E+00  0.1000E+02
  -3.294  0.0000E+00  0.1000E+02
  -3.284  0.0000E+00  0.1000E+02
  -3.274  0.0000E+00  0.1000E+02
  -3.264  0.0000E+00  0.1000E+02
  -3.254  0.0000E+00  0.1000E+02
  -3.244  0.0000E+00  0.1000E+02
  -3.234  0.0000E+00  0.1000E+02
  -3.224  0.0000E+00  0.1000E+02
  -3.214  0.0000E+00  0.1000E+02
  -3.204  0.0000E+00  0.1000E+02
  -3.194  0.0000E+00  0.1000E+02
  -3.184  0.0000E+00  0.1000E+02
  -3.174  0.0000E+00  0.1000E+02
  -3.164  0.0000E+00  0.1000E+02
  -3.154  0.0000E+00  0.1000E+02
  -3.144  0.0000E+00  0.1000E+02
  -3.134  0.0000E+00  0.1000E+02
  -3.124  0.0000E+00  0.1000E+02
  -3.114  0.0000E+00  0.1000E+02
  -3.104  0.0000E+00  0.1000E+02
  -3.094  0.0000E+00  0.1000E+02
  -3.084  0.0000E+00  0.1000E+02
  -3.074  0.0000E+00  0.1000E+02
  -3.064  0.0000E+00  0.1000E+02
  -3.054  0.0000E+00  0.1000E+02
  -3.044  0.0000E+00  0.1000E+02
  -3.034  0.0000E+00  0.1000E+02
  -3.024  0.0000E+00  0.1000E+02
  -3.014  0.0000E+00  0.1000E+02
  -3.004  0.0000E+00  0.1000E+02
  -2.994  0.0000E+00  0.1000E+02
  -2.984  0.0000E+00  0.1000E+02
  -2.974  0.0000E+00  0.1000E+02
  -2.964  0.0000E+00  0.1000E+02
  -2.954  0.0000E+00  0.1000E+02
  -2.944  0.0000E+00  0.1000E+02
  -2.934  0.0000E+00  0.1000E+02
  -2.924  0.0000E+00  0.1000E+02
  -2.914  0.0000E+00  0.1000E+02
  -2.904  0.0000E+00  0.1000E+02
  -2.894  0.0000E+00  0.1000E+02
  -2.884  0.0000E+00  0.1000E+02
  -2.874  0.0000E+00  0.1000E+02
  -2.864  0.0000E+00  0.1000E+02
  -2.854  0.0000E+00  0.1000E+02
  -2.844  0.0000E+00  0.1000E+02
  -2.834  0.0000E+00  0.1000E+02
  -2.824  0.0000E+00  0.1000E+02
  -2.814  0.0000E+00  0.1000E+02
  -2.804  0.0000E+00  0.1000E+02
  -2.794  0.0000E+00  0.1000E+02
  -2.784  0.0000E+00  0.1000E+02
  -2.774  0.0000E+00  0.1000E+02
  -2.764  0.0000E+00  0.1000E+02
  -2.754  0.0000E+00  0.1000E+02
  -2.744  0.0000E+00  0.1000E+02
  -2.734  0.0000E+00  0.1000E+02
  -2.724  0.0000E+00  0.1000E+02
  -2.714  0.0000E+00  0.1000E+02
  -2.704  0.0000E+00  0.1000E+02
  -2.694  0.0000E+00  0.1000E+02
  -2.684  0.0000E+00  0.1000E+02
  -2.674  0.0000E+00  0.1000E+02
  -2.664  0.0000E+00  0.1000E+02
  -2.654  0.0000E+00  0.1000E+02
  -2.644  0.0000E+00  0.1000E+02
  -2.634  0.0000E+00  0.1000E+02
  -2.624  0.0000E+00  0.1000E+02
  -2.614  0.0000E+00  0.1000E+02
  -2.604  0.0000E+00  0.1000E+02
  -2.594  0.0000E+00  0.1000E+02
  -2.584  0.0000E+00  0.1000E+02
  -2.574  0.0000E+00  0.1000E+02
  -2.564  0.0000E+00  0.1000E+02
  -2.554  0.0000E+00  0.1000E+02
  -2.544  0.0000E+00  0.1000E+02
  -2.534  0.0000E+00  0.1000E+02
  -2.524  0.0000E+00  0.1000E+02
  -2.514  0.0000E+00  0.1000E+02
  -2.504  0.0000E+00  0.1000E+02
  -2.494  0.0000E+00  0.1000E+02
  -2.484  0.0000E+00  0.1000E+02
  -2.474  0.0000E+00  0.1000E+02
  -2.464  0.0000E+00  0.1000E+02
  -2.454  0.0000E+00  0.1000E+02
  -2.444  0.0000E+00  0.1000E+02
  -2.434  0.0000E+00  0.1000E+02
  -2.424  0.0000E+00  0.1000E+02
  -2.414  0.0000E+00  0.1000E+02
  -2.404  0.0000E+00  0.1000E+02
  -2.394  0.0000E+00  0.1000E+02
  -2.384  0.0000E+00  0.1000E+02
  -2.374  0.0000E+00  0.1000E+02
  -2.364  0.0000E+00  0.1000E+02
  -2.354  0.0000E+00  0.1000E+02
  -2.344  0.0000E+00  0.1000E+02
  -2.334  0.0000E+00  0.1000E+02
  -2.324  0.0000E+00  0.1000E+02
  -2.314  0.0000E+00  0.1000E+02
  -2.304  0.0000E+00  0.1000E+02
  -2.294  0.0000E+00  0.1000E+02
  -2.284  0.0000E+00  0.1000E+02
  -2.274  0.0000E+00  0.1000E+02
  -2.264  0.0000E+00  0.1000E+02
  -2.254  0.0000E+00  0.1000E+02
  -2.244  0.0000E+00  0.1000E+02
  -2.234  0.0000E+00  0.1000E+02
  -2.224  0.0000E+00  0.1000E+02
  -2.214  0.0000E+00  0.1000E+02
  -2.204  0.0000E+00  0.1000E+02
  -2.194  0.0000E+00  0.1000E+02
  -2.184  0.0000E+00  0.1000E+02
  -2.174  0.0000E+00  0.1000E+02
  -2.164  0.0000E+00  0.1000E+02
  -2.154  0.0000E+00  0.1000E+02
  -2.144  0.0000E+00  0.1000E+02
  -2.134  0.0000E+00  0.1000E+02
  -2.124  0.0000E+00  0.1000E+02
  -2.114  0.0000E+00  0.1000E+02
  -2.104  0.0000E+00  0.1000E+02
  -2.094  0.0000E+00  0.1000E+02
  -2.084  0.0000E+00  0.1000E+02
  -2.074  0.0000E+00  0.1000E+02
  -2.064  0.0000E+00  0.1000E+02
  -2.054  0.0000E+00  0.1000E+02
  -2.044  0.0000E+00  0.1000E+02
  -2.034  0.0000E+00  0.1000E+02
  -2.024  0.0000E+00  0.1000E+02
  -2.014  0.0000E+00  0.1000E+02
  -2.004  0.0000E+00  0.1000E+02
  -1.994  0.0000E+00  0.1000E+02
  -1.984  0.0000E+00  0.1000E+02
  -1.974  0.0000E+00  0.1000E+02
  -1.964  0.0000E+00  0.1000E+02
  -1.954  0.0000E+00  0.1000E+02
  -1.944  0.0000E+00  0.1000E+02
  -1.934  0.0000E+00  0.1000E+02
  -1.924  0.0000E+00  0.1000E+02
  -1.914  0.0000E+00  0.1000E+02
  -1.904  0.0000E+00  0.1000E+02
  -1.894  0.0000E+00  0.1000E+02
  -1.884  0.0000E+00  0.1000E+02
  -1.874  0.0000E+00  0.1000E+02
  -1.864  0.0000E+00  0.1000E+02
  -1.854  0.0000E+00  0.1000E+02
  -1.844  0.0000E+00  0.1000E+02
  -1.834  0.0000E+00  0.1000E+02
  -1.824  0.0000E+00  0.1000E+02
  -1.814  0.0000E+00  0.1000E+02
  -1.804  0.0000E+00  0.1000E+02
  -1.794  0.0000E+00  0.1000E+02
  -1.784  0.0000E+00  0.1000E+02
  -1.774  0.0000E+00  0.1000E+02
  -1.764  0.0000E+00  0.1000E+02
  -1.754  0.0000E+00  0.1000E+02
  -1.744  0.0000E+00  0.1000E+02
  -1.734  0.0000E+00  0.1000E+02
  -1.724  0.0000E+00  0.1000E+02
  -1.714  0.0000E+00  0.1000E+02
  -1.704  0.0000E+00  0.1000E+02
  -1.694  0.0000E+00  0.1000E+02
  -1.684  0.0000E+00  0.1000E+02
  -1.674  0.0000E+00  0.1000E+02
  -1.664  0.0000E+00  0.1000E+02
  -1.654  0.0000E+00  0.1000E+02
  -1.644  0.0000E+00  0.1000E+02
  -1.634  0.0000E+00  0.1000E+02
  -1.624  0.0000E+00  0.1000E+02
  -1.614  0.0000E+00  0.1000E+02
  -1.604  0.0000E+00  0.1000E+02
  -1.594  0.0000E+00  0.1000E+02
  -1.584  0.0000E+00  0.1000E+02
  -1.574  0.0000E+00  0.1000E+02
  -1.564  0.0000E+00  0.1000E+02
  -1.554  0.0000E+00  0.1000E+02
  -1.544  0.0000E+00  0.1000E+02
  -1.534  0.0000E+00  0.1000E+02
  -1.524  0.0000E+00  0.1000E+02
  -1.514  0.0000E+00  0.1000E+02
  -1.504  0.0000E+00  0.1000E+02
  -1.494  0.0000E+00  0.1000E+02
  -1.484  0.0000E+00  0.1000E+02
  -1.474  0.0000E+00  0.1000E+02
  -1.464  0.0000E+00  0.1000E+02
  -1.454  0.0000E+00  0.1000E+02
  -1.444  0.0000E+00  0.1000E+02
  -1.434  0.0000E+00  0.1000E+02
  -1.424  0.0000E+00  0.1000E+02
  -1.414  0.0000E+00  0.1000E+02
  -1.404  0.0000E+00  0.1000E+02
  -1.394  0.0000E+00  0.1000E+02
  -1.384  0.0000E+00  0.1000E+02
  -1.374  0.0000E+00  0.1000E+02
  -1.364  0.0000E+00  0.1000E+02
  -1.354  0.0000E+00  0.1000E+02
  -1.344  0.0000E+00  0.1000E+02
  -1.334  0.0000E+00  0.1000E+02
  -1.324  0.0000E+00  0.1000E+02
  -1.314  0.0000E+00  0.1000E+02
  -1.304  0.0000E+00  0.1000E+02
  -1.294  0.0000E+00  0.1000E+02
  -1.284  0.0000E+00  0.1000E+02
  -1.274  0.0000E+00  0.1000E+02
  -1.264  0.0000E+00  0.1000E+02
  -1.254  0.0000E+00  0.1000E+02
  -1.244  0.0000E+00  0.1000E+02
  -1.234  0.0000E+00  0.1000E+02
  -1.224  0.0000E+00  0.1000E+02
  -1.214  0.0000E+00  0.1000E+02
  -1.204  0.0000E+00  0.1000E+02
  -1.194  0.0000E+00  0.1000E+02
  -1.184  0.0000E+00  0.1000E+02
  -1.174  0.0000E+00  0.1000E+02
  -1.164  0.0000E+00  0.1000E+02
  -1.154  0.0000E+00  0.1000E+02
  -1.144  0.0000E+00  0.1000E+02
  -1.134  0.0000E+00  0.1000E+02
  -1.124  0.0000E+00  0.1000E+02
  -1.114  0.0000E+00  0.1000E+02
  -1.104  0.0000E+00  0.1000E+02
  -1.094  0.0000E+00  0.1000E+02
  -1.084  0.0000E+00  0.1000E+02
  -1.074  0.0000E+00  0.1000E+02
  -1.064  0.0000E+00  0.1000E+02
  -1.054  0.0000E+00  0.1000E+02
  -1.044  0.0000E+00  0.1000E+02
  -1.034  0.0000E+00  0.1000E+02
  -1.024  0.0000E+00  0.1000E+02
  -1.014  0.0000E+00  0.1000E+02
  -1.004  0.0000E+00  0.1000E+02
  -0.994  0.0000E+00  0.1000E+02
  -0.984  0.0000E+00  0.1000E+02
  -0.974  0.0000E+00  0.1000E+02
  -0.964  0.0000E+00  0.1000E+02
  -0.954  0.0000E+00  0.1000E+02
  -0.944  0.0000E+00  0.1000E+02
  -0.934  0.0000E+00  0.1000E+02
  -0.924  0.0000E+00  0.1000E+02
  -0.914  0.0000E+00  0.1000E+02
  -0.904  0.0000E+00  0.1000E+02
  -0.894  0.0000E+00  0.1000E+02
  -0.884  0.0000E+00  0.1000E+02
  -0.874  0.0000E+00  0.1000E+02
  -0.864  0.0000E+00  0.1000E+02
  -0.854  0.0000E+00  0.1000E+02
  -0.844  0.0000E+00  0.1000E+02
  -0.834  0.0000E+00  0.1000E+02
  -0.824  0.0000E+00  0.1000E+02
  -0.814  0.0000E+00  0.1000E+02
  -0.804  0.0000E+00  0.1000E+02
  -0.794  0.0000E+00  0.1000E+02
  -0.784  0.0000E+00  0.1000E+02
  -0.774  0.0000E+00  0.1000E+02
  -0.764  0.0000E+00  0.1000E+02
  -0.754  0.0000E+00  0.1000E+02
  -0.744  0.0000E+00  0.1000E+02
  -0.734  0.0000E+00  0.1000E+02
  -0.724  0.0000E+00  0.1000E+02
  -0.714  0.0000E+00  0.1000E+02
  -0.704  0.0000E+00  0.1000E+02
  -0.694  0.0000E+00  0.1000E+02
  -0.684  0.0000E+00  0.1000E+02
  -0.674  0.0000E+00  0.1000E+02
  -0.664  0.0000E+00  0.1000E+02
  -0.654  0.0000E+00  0.1000E+02
  -0.644  0.0000E+00  0.1000E+02
  -0.634  0.0000E+00  0.1000E+02
  -0.624  0.0000E+00  0.1000E+02
  -0.614  0.0000E+00  0.1000E+02
  -0.604  0.0000E+00  0.1000E+02
  -0.594  0.0000E+00  0.1000E+02
  -0.584  0.0000E+00  0.1000E+02
  -0.574  0.0000E+00  0.1000E+02
  -0.564  0.0000E+00  0.1000E+02
  -0.554  0.0000E+00  0.1000E+02
  -0.544  0.0000E+00  0.1000E+02
  -0.534  0.0000E+00  0.1000E+02
  -0.524  0.0000E+00  0.1000E+02
  -0.514  0.0000E+00  0.1000E+02
  -0.504  0.0000E+00  0.1000E+02
  -0.494  0.0000E+00  0.1000E+02
  -0.484  0.0000E+00  0.1000E+02
  -0.474  0.0000E+00  0.1000E+02
  -0.464  0.0000E+00  0.1000E+02
  -0.454  0.0000E+00  0.1000E+02
  -0.444  0.0000E+00  0.1000E+02
  -0.434  0.0000E+00  0.1000E+02
  -0.424  0.0000E+00  0.1000E+02
  -0.414  0.0000E+00  0.1000E+02
  -0.404  0.0000E+00  0.1000E+02
  -0.394  0.0000E+00  0.1000E+02
  -0.384  0.0000E+00  0.1000E+02
  -0.374  0.0000E+00  0.1000E+02
  -0.364  0.0000E+00  0.1000E+02
  -0.354  0.0000E+00  0.1000E+02
  -0.344  0.0000E+00  0.1000E+02
  -0.334  0.0000E+00  0.1000E+02
  -0.324  0.0000E+00  0.1000E+02
  -0.314  0.0000E+00  0.1000E+02
  -0.304  0.0000E+00  0.1000E+02
  -0.294  0.0000E+00  0.1000E+02
  -0.284  0.0000E+00  0.1000E+02
  -0.274  0.0000E+00  0.1000E+02
  -0.264  0.0000E+00  0.1000E+02
  -0.254  0.0000E+00  0.1000E+02
  -0.244  0.0000E+00  0.1000E+02
  -0.234  0.0000E+00  0.1000E+02
  -0.224  0.0000E+00  0.1000E+02
  -0.214  0.0000E+00  0.1000E+02
  -0.204  0.0000E+00  0.1000E+02
  -0.194  0.0000E+00  0.1000E+02
  -0.184  0.0000E+00  0.1000E+02
  -0.174  0.6819E-03  0.1000E+02
  -0.164  0.3336E-02  0.1000E+02
  -0.154  0.7993E-02  0.1000E+02
  -0.144  0.1465E-01  0.1000E+02
  -0.134  0.4874E-01  0.1000E+02
  -0.124  0.3118E-01  0.1000E+02
  -0.114  0.3493E-01  0.1000E+02
  -0.104  0.3884E-01  0.1000E+02
  -0.094  0.4292E-01  0.1000E+02
  -0.084  0.4717E-01  0.1000E+02
  -0.074  0.5158E-01  0.1000E+02
  -0.064  0.5781E-01  0.1000E+02
  -0.054  0.6313E-01  0.1000E+02
  -0.044  0.6675E-01  0.1000E+02
  -0.034  0.6868E-01  0.1001E+02
  -0.024  0.6569E-01  0.1001E+02
  -0.014  0.6559E-01  0.1001E+02
  -0.004  0.6786E-01  0.1001E+02
   0.006  0.7028E-01  0.1001E+02
   0.016  0.7284E-01  0.1001E+02
   0.026  0.7556E-01  0.1001E+02
   0.036  0.7842E-01  0.1001E+02
   0.046  0.8140E-01  0.1001E+02
   0.056  0.8441E-01  0.1001E+02
   0.066  0.8743E-01  0.1001E+02
   0.076  0.9047E-01  0.1001E+02
   0.086  0.9286E-01  0.1001E+02
   0.096  0.9313E-01  0.1002E+02
   0.106  0.9455E-01  0.1002E+02
   0.116  0.9587E-01  0.1002E+02
   0.126  0.9709E-01  0.1002E+02
   0.136  0.9820E-01  0.1002E+02
   0.146  0.9922E-01  0.1002E+02
   0.156  0.9983E-01  0.1002E+02
   0.166  0.1005E+00  0.1002E+02
   0.176  0.1016E+00  0.1002E+02
   0.186  0.1030E+00  0.1002E+02
   0.196  0.1050E+00  0.1003E+02
   0.206  0.1071E+00  0.1003E+02
   0.216  0.1093E+00  0.1003E+02
   0.226  0.1115E+00  0.1003E+02
   0.236  0.1137E+00  0.1003E+02
   0.246  0.1160E+00  0.1003E+02
   0.256  0.1183E+00  0.1003E+02
   0.266  0.1205E+00  0.1003E+02
   0.276  0.1223E+00  0.1003E+02
   0.286  0.1234E+00  0.1004E+02
   0.296  0.1238E+00  0.1004E+02
   0.306  0.1236E+00  0.1004E+02
   0.316  0.1244E+00  0.1004E+02
   0.326  0.1255E+00  0.1004E+02
   0.336  0.1266E+00  0.1004E+02
   0.346  0.1277E+00  0.1004E+02
   0.356  0.1288E+00  0.1004E+02
   0.366  0.1299E+00  0.1005E+02
   0.376  0.1311E+00  0.1005E+02
   0.386  0.1321E+00  0.1005E+02
   0.396  0.1331E+00  0.1005E+02
   0.406  0.1341E+00  0.1005E+02
   0.416  0.1350E+00  0.1005E+02
   0.426  0.1361E+00  0.1005E+02
   0.436  0.1375E+00  0.1006E+02
   0.446  0.1389E+00  0.1006E+02
   0.456  0.1405E+00  0.1006E+02
   0.466  0.1421E+00  0.1006E+02
   0.476  0.1437E+00  0.1006E+02
   0.486  0.1455E+00  0.1006E+02
   0.496  0.1472E+00  0.1006E+02
   0.506  0.1491E+00  0.1007E+02
   0.516  0.1509E+00  0.1007E+02
   0.526  0.1527E+00  0.1007E+02
   0.536  0.1531E+00  0.1007E+02
   0.546  0.1536E+00  0.1007E+02
   0.556  0.1544E+00  0.1007E+02
   0.566  0.1551E+00  0.1007E+02
   0.576  0.1556E+00  0.1008E+02
   0.586  0.1561E+00  0.1008E+02
   0.596  0.1565E+00  0.1008E+02
   0.606  0.1571E+00  0.1008E+02
   0.616  0.1579E+00  0.1008E+02
   0.626  0.1589E+00  0.1008E+02
   0.636  0.1600E+00  0.1009E+02
   0.646  0.1611E+00  0.1009E+02
   0.656  0.1622E+00  0.1009E+02
   0.666  0.1632E+00  0.1009E+02
   0.676  0.1643E+00  0.1009E+02
   0.686  0.1653E+00  0.1009E+02
   0.696  0.1664E+00  0.1010E+02
   0.706  0.1674E+00  0.1010E+02
   0.716  0.1684E+00  0.1010E+02
   0.726  0.1694E+00  0.1010E+02
   0.736  0.1704E+00  0.1010E+02
   0.746  0.1715E+00  0.1010E+02
   0.756  0.1726E+00  0.1011E+02
   0.766  0.1738E+00  0.1011E+02
   0.776  0.1751E+00  0.1011E+02
   0.786  0.1764E+00  0.1011E+02
   0.796  0.1778E+00  0.1011E+02
   0.806  0.1792E+00  0.1011E+02
   0.816  0.1807E+00  0.1012E+02
   0.826  0.1821E+00  0.1012E+02
   0.836  0.1832E+00  0.1012E+02
   0.846  0.1841E+00  0.1012E+02
   0.856  0.1847E+00  0.1012E+02
   0.866  0.1849E+00  0.1013E+02
   0.876  0.1856E+00  0.1013E+02
   0.886  0.1864E+00  0.1013E+02
   0.896  0.1871E+00  0.1013E+02
   0.906  0.1878E+00  0.1013E+02
   0.916  0.1885E+00  0.1013E+02
   0.926  0.1892E+00  0.1014E+02
   0.936  0.1898E+00  0.1014E+02
   0.946  0.1904E+00  0.1014E+02
   0.956  0.1910E+00  0.1014E+02
   0.966  0.1915E+00  0.1014E+02
   0.976  0.1924E+00  0.1015E+02
   0.986  0.1934E+00  0.1015E+02
   0.996  0.1943E+00  0.1015E+02
   1.006  0.1953E+00  0.1015E+02
   1.016  0.1962E+00  0.1015E+02
   1.026  0.1973E+00  0.1016E+02
   1.036  0.1983E+00  0.1016E+02
   1.046  0.1993E+00  0.1016E+02
   1.056  0.2003E+00  0.1016E+02
   1.066  0.2014E+00  0.1016E+02
   1.076  0.2024E+00  0.1017E+02
   1.086  0.2034E+00  0.1017E+02
   1.096  0.2044E+00  0.1017E+02
   1.106  0.2054E+00  0.1017E+02
   1.116  0.2065E+00  0.1017E+02
   1.126  0.2075E+00  0.1018E+02
   1.136  0.2085E+00  0.1018E+02
   1.146  0.2095E+00  0.1018E+02
   1.156  0.2105E+00  0.1018E+02
   1.166  0.2116E+00  0.1018E+02
   1.176  0.2128E+00  0.1019E+02
   1.186  0.2141E+00  0.1019E+02
   1.196  0.2148E+00  0.1019E+02
   1.206  0.2153E+00  0.1019E+02
   1.216  0.2161E+00  0.1019E+02
   1.226  0.2169E+00  0.1020E+02
   1.236  0.2176E+00  0.1020E+02
   1.246  0.2183E+00  0.1020E+02
   1.256  0.2190E+00  0.1020E+02
   1.266  0.2196E+00  0.1021E+02
   1.276  0.2202E+00  0.1021E+02
   1.286  0.2209E+00  0.1021E+02
   1.296  0.2216E+00  0.1021E+02
   1.306  0.2224E+00  0.1021E+02
   1.316  0.2232E+00  0.1022E+02
   1.326  0.2239E+00  0.1022E+02
   1.336  0.2247E+00  0.1022E+02
   1.346  0.2255E+00  0.1022E+02
   1.356  0.2262E+00  0.1023E+02
   1.366  0.2269E+00  0.1023E+02
   1.376  0.2276E+00  0.1023E+02
   1.386  0.2283E+00  0.1023E+02
   1.396  0.2290E+00  0.1023E+02
   1.406  0.2297E+00  0.1024E+02
   1.416  0.2307E+00  0.1024E+02
   1.426  0.2317E+00  0.1024E+02
   1.436  0.2326E+00  0.1024E+02
   1.446  0.2335E+00  0.1025E+02
   1.456  0.2345E+00  0.1025E+02
   1.466  0.2355E+00  0.1025E+02
   1.476  0.2365E+00  0.1025E+02
   1.486  0.2375E+00  0.1026E+02
   1.496  0.2385E+00  0.1026E+02
   1.506  0.2395E+00  0.1026E+02
   1.516  0.2406E+00  0.1026E+02
   1.526  0.2416E+00  0.1027E+02
   1.536  0.2426E+00  0.1027E+02
   1.546  0.2436E+00  0.1027E+02
   1.556  0.2446E+00  0.1027E+02
   1.566  0.2457E+00  0.1028E+02
   1.576  0.2467E+00  0.1028E+02
   1.586  0.2477E+00  0.1028E+02
   1.596  0.2486E+00  0.1028E+02
   1.606  0.2493E+00  0.1029E+02
   1.616  0.2499E+00  0.1029E+02
   1.626  0.2503E+00  0.1029E+02
   1.636  0.2508E+00  0.1029E+02
   1.646  0.2516E+00  0.1030E+02
   1.656  0.2523E+00  0.1030E+02
   1.666  0.2531E+00  0.1030E+02
   1.676  0.2538E+00  0.1030E+02
   1.686  0.2546E+00  0.1031E+02
   1.696  0.2554E+00  0.1031E+02
   1.706  0.2561E+00  0.1031E+02
   1.716  0.2569E+00  0.1031E+02
   1.726  0.2577E+00  0.1032E+02
   1.736  0.2584E+00  0.1032E+02
   1.746  0.2592E+00  0.1032E+02
   1.756  0.2600E+00  0.1032E+02
   1.766  0.2608E+00  0.1033E+02
   1.776  0.2616E+00  0.1033E+02
   1.786  0.2625E+00  0.1033E+02
   1.796  0.2633E+00  0.1033E+02
   1.806  0.2641E+00  0.1034E+02
   1.816  0.2649E+00  0.1034E+02
   1.826  0.2658E+00  0.1034E+02
   1.836  0.2666E+00  0.1034E+02
   1.846  0.2674E+00  0.1035E+02
   1.856  0.2682E+00  0.1035E+02
   1.866  0.2691E+00  0.1035E+02
   1.876  0.2699E+00  0.1036E+02
   1.886  0.2707E+00  0.1036E+02
   1.896  0.2715E+00  0.1036E+02
   1.906  0.2723E+00  0.1036E+02
   1.916  0.2733E+00  0.1037E+02
   1.926  0.2743E+00  0.1037E+02
   1.936  0.2754E+00  0.1037E+02
   1.946  0.2765E+00  0.1037E+02
   1.956  0.2775E+00  0.1038E+02
   1.966  0.2785E+00  0.1038E+02
   1.976  0.2795E+00  0.1038E+02
   1.986  0.2805E+00  0.1039E+02
   1.996  0.2816E+00  0.1039E+02
   2.006  0.2826E+00  0.1039E+02
   2.016  0.2837E+00  0.1039E+02
   2.026  0.2848E+00  0.1040E+02
   2.036  0.2858E+00  0.1040E+02
   2.046  0.2869E+00  0.1040E+02
   2.056  0.2877E+00  0.1041E+02
   2.066  0.2884E+00  0.1041E+02
   2.076  0.2892E+00  0.1041E+02
   2.086  0.2900E+00  0.1041E+02
   2.096  0.2907E+00  0.1042E+02
   2.106  0.2914E+00  0.1042E+02
   2.116  0.2921E+00  0.1042E+02
   2.126  0.2928E+00  0.1043E+02
   2.136  0.2935E+00  0.1043E+02
   2.146  0.2942E+00  0.1043E+02
   2.156  0.2950E+00  0.1043E+02
   2.166  0.2958E+00  0.1044E+02
   2.176  0.2967E+00  0.1044E+02
   2.186  0.2975E+00  0.1044E+02
   2.196  0.2984E+00  0.1045E+02
   2.206  0.2993E+00  0.1045E+02
   2.216  0.3002E+00  0.1045E+02
   2.226  0.3012E+00  0.1046E+02
   2.236  0.3021E+00  0.1046E+02
   2.246  0.3030E+00  0.1046E+02
   2.256  0.3040E+00  0.1046E+02
   2.266  0.3049E+00  0.1047E+02
   2.276  0.3059E+00  0.1047E+02
   2.286  0.3068E+00  0.1047E+02
   2.296  0.3078E+00  0.1048E+02
   2.306  0.3088E+00  0.1048E+02
   2.316  0.3097E+00  0.1048E+02
   2.326  0.3107E+00  0.1049E+02
   2.336  0.3117E+00  0.1049E+02
   2.346  0.3127E+00  0.1049E+02
   2.356  0.3137E+00  0.1050E+02
   2.366  0.3147E+00  0.1050E+02
   2.376  0.3157E+00  0.1050E+02
   2.386  0.3167E+00  0.1050E+02
   2.396  0.3176E+00  0.1051E+02
   2.406  0.3186E+00  0.1051E+02
   2.416  0.3196E+00  0.1051E+02
   2.426  0.3206E+00  0.1052E+02
   2.436  0.3216E+00  0.1052E+02
   2.446  0.3226E+00  0.1052E+02
   2.456  0.3236E+00  0.1053E+02
   2.466  0.3249E+00  0.1053E+02
   2.476  0.3261E+00  0.1053E+02
   2.486  0.3273E+00  0.1054E+02
   2.496  0.3285E+00  0.1054E+02
   2.506  0.3297E+00  0.1054E+02
   2.516  0.3309E+00  0.1055E+02
   2.526  0.3321E+00  0.1055E+02
   2.536  0.3332E+00  0.1055E+02
   2.546  0.3343E+00  0.1056E+02
   2.556  0.3353E+00  0.1056E+02
   2.566  0.3362E+00  0.1056E+02
   2.576  0.3372E+00  0.1057E+02
   2.586  0.3382E+00  0.1057E+02
   2.596  0.3393E+00  0.1057E+02
   2.606  0.3403E+00  0.1058E+02
   2.616  0.3414E+00  0.1058E+02
   2.626  0.3424E+00  0.1058E+02
   2.636  0.3435E+00  0.1059E+02
   2.646  0.3445E+00  0.1059E+02
   2.656  0.3455E+00  0.1059E+02
   2.666  0.3465E+00  0.1060E+02
   2.676  0.3476E+00  0.1060E+02
   2.686  0.3486E+00  0.1060E+02
   2.696  0.3497E+00  0.1061E+02
   2.706  0.3508E+00  0.1061E+02
   2.716  0.3518E+00  0.1062E+02
   2.726  0.3529E+00  0.1062E+02
   2.736  0.3541E+00  0.1062E+02
   2.746  0.3553E+00  0.1063E+02
   2.756  0.3565E+00  0.1063E+02
   2.766  0.3577E+00  0.1063E+02
   2.776  0.3590E+00  0.1064E+02
   2.786  0.3603E+00  0.1064E+02
   2.796  0.3616E+00  0.1064E+02
   2.806  0.3629E+00  0.1065E+02
   2.816  0.3642E+00  0.1065E+02
   2.826  0.3655E+00  0.1065E+02
   2.836  0.3669E+00  0.1066E+02
   2.846  0.3682E+00  0.1066E+02
   2.856  0.3696E+00  0.1067E+02
   2.866  0.3710E+00  0.1067E+02
   2.876  0.3723E+00  0.1067E+02
   2.886  0.3737E+00  0.1068E+02
   2.896  0.3751E+00  0.1068E+02
   2.906  0.3765E+00  0.1068E+02
   2.916  0.3779E+00  0.1069E+02
   2.926  0.3793E+00  0.1069E+02
   2.936  0.3807E+00  0.1070E+02
   2.946  0.3822E+00  0.1070E+02
   2.956  0.3836E+00  0.1070E+02
   2.966  0.3851E+00  0.1071E+02
   2.976  0.3865E+00  0.1071E+02
   2.986  0.3880E+00  0.1071E+02
   2.996  0.3894E+00  0.1072E+02
   3.006  0.3909E+00  0.1072E+02
   3.016  0.3924E+00  0.1073E+02
   3.026  0.3939E+00  0.1073E+02
   3.036  0.3956E+00  0.1073E+02
   3.046  0.3974E+00  0.1074E+02
   3.056  0.3990E+00  0.1074E+02
   3.066  0.4006E+00  0.1075E+02
   3.076  0.4023E+00  0.1075E+02
   3.086  0.4040E+00  0.1075E+02
   3.096  0.4057E+00  0.1076E+02
   3.106  0.4074E+00  0.1076E+02
   3.116  0.4091E+00  0.1077E+02
   3.126  0.4109E+00  0.1077E+02
   3.136  0.4126E+00  0.1077E+02
   3.146  0.4144E+00  0.1078E+02
   3.156  0.4163E+00  0.1078E+02
   3.166  0.4181E+00  0.1079E+02
   3.176  0.4200E+00  0.1079E+02
   3.186  0.4218E+00  0.1080E+02
   3.196  0.4237E+00  0.1080E+02
   3.206  0.4257E+00  0.1080E+02
   3.216  0.4276E+00  0.1081E+02
   3.226  0.4295E+00  0.1081E+02
   3.236  0.4315E+00  0.1082E+02
   3.246  0.4335E+00  0.1082E+02
   3.256  0.4356E+00  0.1083E+02
   3.266  0.4376E+00  0.1083E+02
   3.276  0.4397E+00  0.1083E+02
   3.286  0.4418E+00  0.1084E+02
   3.296  0.4440E+00  0.1084E+02
   3.306  0.4463E+00  0.1085E+02
   3.316  0.4488E+00  0.1085E+02
   3.326  0.4512E+00  0.1086E+02
   3.336  0.4538E+00  0.1086E+02
   3.346  0.4564E+00  0.1087E+02
   3.356  0.4591E+00  0.1087E+02
   3.366  0.4618E+00  0.1087E+02
   3.376  0.4646E+00  0.1088E+02
   3.386  0.4675E+00  0.1088E+02
   3.396  0.4705E+00  0.1089E+02
   3.406  0.4735E+00  0.1089E+02
   3.416  0.4766E+00  0.1090E+02
   3.426  0.4797E+00  0.1090E+02
   3.436  0.4829E+00  0.1091E+02
   3.446  0.4862E+00  0.1091E+02
   3.456  0.4895E+00  0.1092E+02
   3.466  0.4929E+00  0.1092E+02
   3.476  0.4964E+00  0.1093E+02
   3.486  0.5000E+00  0.1093E+02
   3.496  0.5037E+00  0.1094E+02
   3.506  0.5075E+00  0.1094E+02
   3.516  0.5115E+00  0.1095E+02
   3.526  0.5156E+00  0.1095E+02
   3.536  0.5198E+00  0.1096E+02
   3.546  0.5241E+00  0.1096E+02
   3.556  0.5286E+00  0.1097E+02
   3.566  0.5343E+00  0.1097E+02
   3.576  0.5405E+00  0.1098E+02
   3.586  0.5473E+00  0.1098E+02
   3.596  0.5550E+00  0.1099E+02
   3.606  0.5638E+00  0.1100E+02
   3.616  0.5736E+00  0.1100E+02
   3.626  0.5845E+00  0.1101E+02
   3.636  0.5955E+00  0.1101E+02
   3.646  0.6055E+00  0.1102E+02
   3.656  0.6143E+00  0.1103E+02
   3.666  0.6221E+00  0.1103E+02
   3.676  0.6288E+00  0.1104E+02
   3.686  0.6344E+00  0.1104E+02
   3.696  0.6390E+00  0.1105E+02
   3.706  0.6345E+00  0.1106E+02
   3.716  0.6324E+00  0.1106E+02
   3.726  0.6358E+00  0.1107E+02
   3.736  0.6403E+00  0.1108E+02
   3.746  0.6460E+00  0.1108E+02
   3.756  0.6520E+00  0.1109E+02
   3.766  0.6554E+00  0.1110E+02
   3.776  0.6555E+00  0.1110E+02
   3.786  0.6486E+00  0.1111E+02
   3.796  0.6516E+00  0.1111E+02
   3.806  0.6555E+00  0.1112E+02
   3.816  0.6525E+00  0.1113E+02
   3.826  0.6484E+00  0.1113E+02
   3.836  0.6429E+00  0.1114E+02
   3.846  0.6374E+00  0.1115E+02
   3.856  0.6336E+00  0.1115E+02
   3.866  0.6314E+00  0.1116E+02
   3.876  0.6296E+00  0.1117E+02
   3.886  0.6272E+00  0.1117E+02
   3.896  0.6251E+00  0.1118E+02
   3.906  0.6232E+00  0.1118E+02
   3.916  0.6215E+00  0.1119E+02
   3.926  0.6200E+00  0.1120E+02
   3.936  0.6187E+00  0.1120E+02
   3.946  0.6176E+00  0.1121E+02
   3.956  0.6167E+00  0.1122E+02
   3.966  0.6159E+00  0.1122E+02
   3.976  0.6153E+00  0.1123E+02
   3.986  0.6150E+00  0.1123E+02
   3.996  0.6147E+00  0.1124E+02
   4.006  0.6146E+00  0.1125E+02
   4.016  0.6145E+00  0.1125E+02
   4.026  0.6146E+00  0.1126E+02
   4.036  0.6129E+00  0.1127E+02
   4.046  0.6085E+00  0.1127E+02
   4.056  0.6092E+00  0.1128E+02
   4.066  0.6121E+00  0.1128E+02
   4.076  0.6145E+00  0.1129E+02
   4.086  0.6145E+00  0.1130E+02
   4.096  0.6135E+00  0.1130E+02
   4.106  0.6121E+00  0.1131E+02
   4.116  0.6105E+00  0.1131E+02
   4.126  0.6090E+00  0.1132E+02
   4.136  0.6086E+00  0.1133E+02
   4.146  0.6076E+00  0.1133E+02
   4.156  0.6063E+00  0.1134E+02
   4.166  0.6050E+00  0.1134E+02
   4.176  0.6037E+00  0.1135E+02
   4.186  0.6022E+00  0.1136E+02
   4.196  0.6008E+00  0.1136E+02
   4.206  0.5990E+00  0.1137E+02
   4.216  0.5972E+00  0.1137E+02
   4.226  0.5954E+00  0.1138E+02
   4.236  0.5937E+00  0.1139E+02
   4.246  0.5921E+00  0.1139E+02
   4.256  0.5905E+00  0.1140E+02
   4.266  0.5892E+00  0.1140E+02
   4.276  0.5881E+00  0.1141E+02
   4.286  0.5869E+00  0.1142E+02
   4.296  0.5858E+00  0.1142E+02
   4.306  0.5848E+00  0.1143E+02
   4.316  0.5841E+00  0.1143E+02
   4.326  0.5835E+00  0.1144E+02
   4.336  0.5832E+00  0.1145E+02
   4.346  0.5830E+00  0.1145E+02
   4.356  0.5830E+00  0.1146E+02
   4.366  0.5829E+00  0.1146E+02
   4.376  0.5828E+00  0.1147E+02
   4.386  0.5825E+00  0.1147E+02
   4.396  0.5817E+00  0.1148E+02
   4.406  0.5803E+00  0.1149E+02
   4.416  0.5780E+00  0.1149E+02
   4.426  0.5749E+00  0.1150E+02
   4.436  0.5754E+00  0.1150E+02
   4.446  0.5764E+00  0.1151E+02
   4.456  0.5766E+00  0.1151E+02
   4.466  0.5769E+00  0.1152E+02
   4.476  0.5776E+00  0.1153E+02
   4.486  0.5787E+00  0.1153E+02
   4.496  0.5793E+00  0.1154E+02
   4.506  0.5787E+00  0.1154E+02
   4.516  0.5777E+00  0.1155E+02
   4.526  0.5767E+00  0.1156E+02
   4.536  0.5757E+00  0.1156E+02
   4.546  0.5749E+00  0.1157E+02
   4.556  0.5741E+00  0.1157E+02
   4.566  0.5735E+00  0.1158E+02
   4.576  0.5730E+00  0.1158E+02
   4.586  0.5726E+00  0.1159E+02
   4.596  0.5723E+00  0.1160E+02
   4.606  0.5720E+00  0.1160E+02
   4.616  0.5718E+00  0.1161E+02
   4.626  0.5717E+00  0.1161E+02
   4.636  0.5716E+00  0.1162E+02
   4.646  0.5715E+00  0.1162E+02
   4.656  0.5710E+00  0.1163E+02
   4.666  0.5702E+00  0.1164E+02
   4.676  0.5693E+00  0.1164E+02
   4.686  0.5684E+00  0.1165E+02
   4.696  0.5674E+00  0.1165E+02
   4.706  0.5663E+00  0.1166E+02
   4.716  0.5654E+00  0.1166E+02
   4.726  0.5647E+00  0.1167E+02
   4.736  0.5642E+00  0.1168E+02
   4.746  0.5641E+00  0.1168E+02
   4.756  0.5698E+00  0.1169E+02
   4.766  0.5708E+00  0.1169E+02
   4.776  0.5709E+00  0.1170E+02
   4.786  0.5711E+00  0.1170E+02
   4.796  0.5716E+00  0.1171E+02
   4.806  0.5730E+00  0.1171E+02
   4.816  0.5748E+00  0.1172E+02
   4.826  0.5767E+00  0.1173E+02
   4.836  0.5787E+00  0.1173E+02
   4.846  0.5797E+00  0.1174E+02
   4.856  0.5807E+00  0.1174E+02
   4.866  0.5816E+00  0.1175E+02
   4.876  0.5827E+00  0.1176E+02
   4.886  0.5841E+00  0.1176E+02
   4.896  0.5853E+00  0.1177E+02
   4.906  0.5862E+00  0.1177E+02
   4.916  0.5871E+00  0.1178E+02
   4.926  0.5879E+00  0.1178E+02
   4.936  0.5887E+00  0.1179E+02
   4.946  0.5894E+00  0.1180E+02
   4.956  0.5901E+00  0.1180E+02
   4.966  0.5909E+00  0.1181E+02
   4.976  0.5920E+00  0.1181E+02
   4.986  0.5945E+00  0.1182E+02
   4.996  0.5995E+00  0.1183E+02
   5.006  0.6071E+00  0.1183E+02
   5.016  0.6174E+00  0.1184E+02
   5.026  0.6303E+00  0.1184E+02
   5.036  0.6288E+00  0.1185E+02
   5.046  0.6327E+00  0.1186E+02
   5.056  0.6403E+00  0.1186E+02
   5.066  0.6483E+00  0.1187E+02
   5.076  0.6562E+00  0.1188E+02
   5.086  0.6649E+00  0.1188E+02
   5.096  0.6746E+00  0.1189E+02
   5.106  0.6851E+00  0.1190E+02
   5.116  0.6949E+00  0.1190E+02
   5.126  0.7031E+00  0.1191E+02
   5.136  0.7126E+00  0.1192E+02
   5.146  0.7237E+00  0.1192E+02
   5.156  0.7369E+00  0.1193E+02
   5.166  0.7508E+00  0.1194E+02
   5.176  0.7566E+00  0.1195E+02
   5.186  0.7402E+00  0.1195E+02
   5.196  0.7006E+00  0.1196E+02
   5.206  0.6457E+00  0.1197E+02
   5.216  0.5753E+00  0.1197E+02
   5.226  0.4960E+00  0.1198E+02
   5.236  0.4341E+00  0.1198E+02
   5.246  0.3737E+00  0.1199E+02
   5.256  0.3244E+00  0.1199E+02
   5.266  0.2472E+00  0.1199E+02
   5.276  0.1699E+00  0.1200E+02
   5.286  0.1093E+00  0.1200E+02
   5.296  0.6323E-01  0.1200E+02
   5.306  0.3089E-01  0.1200E+02
   5.316  0.1127E-01  0.1200E+02
   5.326  0.9705E-03  0.1200E+02
   5.336  0.0000E+00  0.1200E+02
   5.346  0.0000E+00  0.1200E+02
   5.356  0.0000E+00  0.1200E+02
   5.366  0.0000E+00  0.1200E+02
   5.376  0.0000E+00  0.1200E+02
   5.386  0.0000E+00  0.1200E+02
   5.396  0.0000E+00  0.1200E+02
   5.406  0.0000E+00  0.1200E+02
   5.416  0.0000E+00  0.1200E+02
   5.426  0.0000E+00  0.1200E+02
   5.436  0.0000E+00  0.1200E+02
   5.446  0.0000E+00  0.1200E+02
   5.456  0.0000E+00  0.1200E+02
   5.466  0.0000E+00  0.1200E+02
   5.476  0.0000E+00  0.1200E+02
   5.486  0.0000E+00  0.1200E+02
   5.496  0.0000E+00  0.1200E+02
   5.506  0.0000E+00  0.1200E+02
   5.516  0.0000E+00  0.1200E+02
   5.526  0.0000E+00  0.1200E+02
   5.536  0.0000E+00  0.1200E+02
   5.546  0.0000E+00  0.1200E+02
   5.556  0.0000E+00  0.1200E+02
   5.566  0.0000E+00  0.1200E+02
   5.576  0.0000E+00  0.1200E+02
   5.586  0.0000E+00  0.1200E+02
   5.596  0.0000E+00  0.1200E+02
   5.606  0.0000E+00  0.1200E+02
   5.616  0.0000E+00  0.1200E+02
   5.626  0.0000E+00  0.1200E+02
   5.636  0.0000E+00  0.1200E+02
   5.646  0.0000E+00  0.1200E+02
   5.656  0.0000E+00  0.1200E+02
   5.666  0.0000E+00  0.1200E+02
   5.676  0.0000E+00  0.1200E+02
   5.686  0.0000E+00  0.1200E+02
   5.696  0.0000E+00  0.1200E+02
   5.706  0.0000E+00  0.1200E+02
   5.716  0.0000E+00  0.1200E+02
   5.726  0.0000E+00  0.1200E+02
   5.736  0.0000E+00  0.1200E+02
   5.746  0.0000E+00  0.1200E+02
   5.756  0.0000E+00  0.1200E+02
   5.766  0.0000E+00  0.1200E+02
   5.776  0.0000E+00  0.1200E+02
   5.786  0.0000E+00  0.1200E+02
   5.796  0.0000E+00  0.1200E+02
   5.806  0.0000E+00  0.1200E+02
   5.816  0.0000E+00  0.1200E+02
   5.826  0.0000E+00  0.1200E+02
   5.836  0.0000E+00  0.1200E+02
   5.846  0.0000E+00  0.1200E+02
   5.856  0.0000E+00  0.1200E+02
   5.866  0.0000E+00  0.1200E+02
   5.876  0.0000E+00  0.1200E+02
   5.886  0.0000E+00  0.1200E+02
   5.896  0.0000E+00  0.1200E+02
   5.906  0.0000E+00  0.1200E+02
   5.916  0.0000E+00  0.1200E+02
   5.926  0.0000E+00  0.1200E+02
   5.936  0.0000E+00  0.1200E+02
   5.946  0.0000E+00  0.1200E+02
   5.956  0.0000E+00  0.1200E+02
   5.966  0.0000E+00  0.1200E+02
   5.976  0.0000E+00  0.1200E+02
   5.986  0.0000E+00  0.1200E+02
   5.996  0.0000E+00  0.1200E+02
   6.006  0.0000E+00  0.1200E+02
   6.016  0.0000E+00  0.1200E+02
   6.026  0.0000E+00  0.1200E+02
   6.036  0.0000E+00  0.1200E+02
   6.046  0.0000E+00  0.1200E+02
   6.056  0.0000E+00  0.1200E+02
   6.066  0.0000E+00  0.1200E+02
   6.076  0.0000E+00  0.1200E+02
   6.086  0.0000E+00  0.1200E+02
   6.096  0.0000E+00  0.1200E+02
   6.106  0.0000E+00  0.1200E+02
   6.116  0.0000E+00  0.1200E+02
   6.126  0.0000E+00  0.1200E+02
   6.136  0.0000E+00  0.1200E+02
   6.146  0.0000E+00  0.1200E+02
   6.156  0.0000E+00  0.1200E+02
   6.166  0.0000E+00  0.1200E+02
   6.176  0.0000E+00  0.1200E+02
   6.186  0.0000E+00  0.1200E+02
   6.196  0.0000E+00  0.1200E+02
   6.206  0.0000E+00  0.1200E+02
   6.216  0.0000E+00  0.1200E+02
   6.226  0.0000E+00  0.1200E+02
   6.236  0.0000E+00  0.1200E+02
   6.246  0.0000E+00  0.1200E+02
   6.256  0.0000E+00  0.1200E+02
   6.266  0.0000E+00  0.1200E+02
   6.276  0.0000E+00  0.1200E+02
   6.286  0.0000E+00  0.1200E+02
   6.296  0.0000E+00  0.1200E+02
   6.306  0.0000E+00  0.1200E+02
   6.316  0.0000E+00  0.1200E+02
   6.326  0.0000E+00  0.1200E+02
   6.336  0.0000E+00  0.1200E+02
   6.346  0.0000E+00  0.1200E+02
   6.356  0.0000E+00  0.1200E+02
   6.366  0.0000E+00  0.1200E+02
   6.376  0.0000E+00  0.1200E+02
   6.386  0.0000E+00  0.1200E+02
   6.396  0.0000E+00  0.1200E+02
   6.406  0.0000E+00  0.1200E+02
   6.416  0.0000E+00  0.1200E+02
   6.426  0.0000E+00  0.1200E+02
   6.436  0.0000E+00  0.1200E+02
   6.446  0.0000E+00  0.1200E+02
   6.456  0.0000E+00  0.1200E+02
   6.466  0.0000E+00  0.1200E+02
   6.476  0.0000E+00  0.1200E+02
   6.486  0.0000E+00  0.1200E+02
   6.496  0.0000E+00  0.1200E+02
   6.506  0.0000E+00  0.1200E+02
   6.516  0.0000E+00  0.1200E+02
   6.526  0.0000E+00  0.1200E+02
   6.536  0.0000E+00  0.1200E+02
   6.546  0.0000E+00  0.1200E+02
   6.556  0.0000E+00  0.1200E+02
   6.566  0.0000E+00  0.1200E+02
   6.576  0.0000E+00  0.1200E+02
   6.586  0.0000E+00  0.1200E+02
   6.596  0.0000E+00  0.1200E+02
   6.606  0.0000E+00  0.1200E+02
   6.616  0.0000E+00  0.1200E+02
   6.626  0.0000E+00  0.1200E+02
   6.636  0.0000E+00  0.1200E+02
   6.646  0.0000E+00  0.1200E+02
   6.656  0.0000E+00  0.1200E+02
   6.666  0.0000E+00  0.1200E+02
   6.676  0.0000E+00  0.1200E+02
   6.686  0.0000E+00  0.1200E+02
   6.696  0.0000E+00  0.1200E+02
   6.706  0.0000E+00  0.1200E+02
   6.716  0.0000E+00  0.1200E+02
   6.726  0.0000E+00  0.1200E+02
   6.736  0.0000E+00  0.1200E+02
   6.746  0.0000E+00  0.1200E+02
   6.756  0.0000E+00  0.1200E+02
   6.766  0.0000E+00  0.1200E+02
   6.776  0.0000E+00  0.1200E+02
   6.786  0.0000E+00  0.1200E+02
   6.796  0.0000E+00  0.1200E+02
   6.806  0.0000E+00  0.1200E+02
   6.816  0.0000E+00  0.1200E+02
   6.826  0.0000E+00  0.1200E+02
   6.836  0.0000E+00  0.1200E+02
   6.846  0.0000E+00  0.1200E+02
   6.856  0.0000E+00  0.1200E+02
   6.866  0.0000E+00  0.1200E+02
   6.876  0.0000E+00  0.1200E+02
   6.886  0.0000E+00  0.1200E+02
   6.896  0.0000E+00  0.1200E+02
   6.906  0.0000E+00  0.1200E+02
   6.916  0.0000E+00  0.1200E+02
   6.926  0.0000E+00  0.1200E+02
   6.936  0.0000E+00  0.1200E+02
   6.946  0.0000E+00  0.1200E+02
   6.956  0.0000E+00  0.1200E+02
   6.966  0.0000E+00  0.1200E+02
   6.976  0.0000E+00  0.1200E+02
   6.986  0.0000E+00  0.1200E+02
   6.996  0.0000E+00  0.1200E+02
   7.006  0.0000E+00  0.1200E+02
   7.016  0.0000E+00  0.1200E+02
   7.026  0.0000E+00  0.1200E+02
   7.036  0.0000E+00  0.1200E+02
   7.046  0.0000E+00  0.1200E+02
   7.056  0.0000E+00  0.1200E+02
   7.066  0.0000E+00  0.1200E+02
   7.076  0.0000E+00  0.1200E+02
   7.086  0.0000E+00  0.1200E+02
   7.096  0.0000E+00  0.1200E+02
   7.106  0.0000E+00  0.1200E+02
   7.116  0.0000E+00  0.1200E+02
   7.126  0.0000E+00  0.1200E+02
   7.136  0.0000E+00  0.1200E+02
   7.146  0.0000E+00  0.1200E+02
   7.156  0.0000E+00  0.1200E+02
   7.166  0.0000E+00  0.1200E+02
   7.176  0.0000E+00  0.1200E+02
   7.186  0.0000E+00  0.1200E+02
   7.196  0.0000E+00  0.1200E+02
   7.206  0.0000E+00  0.1200E+02
   7.216  0.0000E+00  0.1200E+02
   7.226  0.0000E+00  0.1200E+02
   7.236  0.0000E+00  0.1200E+02
   7.246  0.0000E+00  0.1200E+02
   7.256  0.0000E+00  0.1200E+02
   7.266  0.0000E+00  0.1200E+02
   7.276  0.0000E+00  0.1200E+02
   7.286  0.0000E+00  0.1200E+02
   7.296  0.0000E+00  0.1200E+02
   7.306  0.0000E+00  0.1200E+02
   7.316  0.0000E+00  0.1200E+02
   7.326  0.0000E+00  0.1200E+02
   7.336  0.0000E+00  0.1200E+02
   7.346  0.0000E+00  0.1200E+02
   7.356  0.0000E+00  0.1200E+02
   7.366  0.0000E+00  0.1200E+02
   7.376  0.0000E+00  0.1200E+02
   7.386  0.0000E+00  0.1200E+02
   7.396  0.0000E+00  0.1200E+02
   7.406  0.0000E+00  0.1200E+02
   7.416  0.0000E+00  0.1200E+02
   7.426  0.0000E+00  0.1200E+02
   7.436  0.0000E+00  0.1200E+02
   7.446  0.0000E+00  0.1200E+02
   7.456  0.1541E-03  0.1200E+02
   7.466  0.8978E-03  0.1200E+02
   7.476  0.2257E-02  0.1200E+02
   7.486  0.4233E-02  0.1200E+02
   7.496  0.6825E-02  0.1200E+02
   7.506  0.1003E-01  0.1200E+02
   7.516  0.1386E-01  0.1200E+02
   7.526  0.1830E-01  0.1200E+02
   7.536  0.2490E-01  0.1200E+02
   7.546  0.3168E-01  0.1200E+02
   7.556  0.3827E-01  0.1200E+02
   7.566  0.4467E-01  0.1200E+02
   7.576  0.5088E-01  0.1200E+02
   7.586  0.5704E-01  0.1200E+02
   7.596  0.6289E-01  0.1200E+02
   7.606  0.6824E-01  0.1200E+02
   7.616  0.7310E-01  0.1200E+02
   7.626  0.7746E-01  0.1201E+02
   7.636  0.7834E-01  0.1201E+02
   7.646  0.7861E-01  0.1201E+02
   7.656  0.8030E-01  0.1201E+02
   7.666  0.8306E-01  0.1201E+02
   7.676  0.8593E-01  0.1201E+02
   7.686  0.8885E-01  0.1201E+02
   7.696  0.9182E-01  0.1201E+02
   7.706  0.9484E-01  0.1201E+02
   7.716  0.9791E-01  0.1201E+02
   7.726  0.1010E+00  0.1201E+02
   7.736  0.1042E+00  0.1202E+02
   7.746  0.1074E+00  0.1202E+02
   7.756  0.1107E+00  0.1202E+02
   7.766  0.1148E+00  0.1202E+02
   7.776  0.1210E+00  0.1202E+02
   7.786  0.1291E+00  0.1202E+02
   7.796  0.1328E+00  0.1202E+02
   7.806  0.1360E+00  0.1202E+02
   7.816  0.1388E+00  0.1202E+02
   7.826  0.1413E+00  0.1203E+02
   7.836  0.1435E+00  0.1203E+02
   7.846  0.1453E+00  0.1203E+02
   7.856  0.1468E+00  0.1203E+02
   7.866  0.1480E+00  0.1203E+02
   7.876  0.1488E+00  0.1203E+02
   7.886  0.1441E+00  0.1204E+02
   7.896  0.1449E+00  0.1204E+02
   7.906  0.1468E+00  0.1204E+02
   7.916  0.1488E+00  0.1204E+02
   7.926  0.1508E+00  0.1204E+02
   7.936  0.1529E+00  0.1204E+02
   7.946  0.1550E+00  0.1204E+02
   7.956  0.1572E+00  0.1205E+02
   7.966  0.1594E+00  0.1205E+02
   7.976  0.1617E+00  0.1205E+02
   7.986  0.1641E+00  0.1205E+02
   7.996  0.1665E+00  0.1205E+02
   8.006  0.1690E+00  0.1205E+02
   8.016  0.1716E+00  0.1206E+02
   8.026  0.1742E+00  0.1206E+02
   8.036  0.1769E+00  0.1206E+02
   8.046  0.1796E+00  0.1206E+02
   8.056  0.1824E+00  0.1206E+02
   8.066  0.1854E+00  0.1206E+02
   8.076  0.1886E+00  0.1207E+02
   8.086  0.1920E+00  0.1207E+02
   8.096  0.1956E+00  0.1207E+02
   8.106  0.1993E+00  0.1207E+02
   8.116  0.2033E+00  0.1207E+02
   8.126  0.2044E+00  0.1208E+02
   8.136  0.2052E+00  0.1208E+02
   8.146  0.2069E+00  0.1208E+02
   8.156  0.2084E+00  0.1208E+02
   8.166  0.2097E+00  0.1208E+02
   8.176  0.2110E+00  0.1209E+02
   8.186  0.2123E+00  0.1209E+02
   8.196  0.2137E+00  0.1209E+02
   8.206  0.2151E+00  0.1209E+02
   8.216  0.2165E+00  0.1210E+02
   8.226  0.2179E+00  0.1210E+02
   8.236  0.2194E+00  0.1210E+02
   8.246  0.2210E+00  0.1210E+02
   8.256  0.2231E+00  0.1210E+02
   8.266  0.2253E+00  0.1211E+02
   8.276  0.2277E+00  0.1211E+02
   8.286  0.2302E+00  0.1211E+02
   8.296  0.2322E+00  0.1211E+02
   8.306  0.2339E+00  0.1212E+02
   8.316  0.2356E+00  0.1212E+02
   8.326  0.2372E+00  0.1212E+02
   8.336  0.2386E+00  0.1212E+02
   8.346  0.2399E+00  0.1212E+02
   8.356  0.2412E+00  0.1213E+02
   8.366  0.2426E+00  0.1213E+02
   8.376  0.2440E+00  0.1213E+02
   8.386  0.2455E+00  0.1213E+02
   8.396  0.2475E+00  0.1214E+02
   8.406  0.2496E+00  0.1214E+02
   8.416  0.2518E+00  0.1214E+02
   8.426  0.2539E+00  0.1214E+02
   8.436  0.2561E+00  0.1215E+02
   8.446  0.2586E+00  0.1215E+02
   8.456  0.2614E+00  0.1215E+02
   8.466  0.2644E+00  0.1215E+02
   8.476  0.2677E+00  0.1216E+02
   8.486  0.2713E+00  0.1216E+02
   8.496  0.2752E+00  0.1216E+02
   8.506  0.2818E+00  0.1217E+02
   8.516  0.2892E+00  0.1217E+02
   8.526  0.2967E+00  0.1217E+02
   8.536  0.3041E+00  0.1217E+02
   8.546  0.3117E+00  0.1218E+02
   8.556  0.3199E+00  0.1218E+02
   8.566  0.3312E+00  0.1218E+02
   8.576  0.3350E+00  0.1219E+02
   8.586  0.3295E+00  0.1219E+02
   8.596  0.3353E+00  0.1219E+02
   8.606  0.3410E+00  0.1220E+02
   8.616  0.3465E+00  0.1220E+02
   8.626  0.3519E+00  0.1220E+02
   8.636  0.3572E+00  0.1221E+02
   8.646  0.3624E+00  0.1221E+02
   8.656  0.3674E+00  0.1221E+02
   8.666  0.3723E+00  0.1222E+02
   8.676  0.3770E+00  0.1222E+02
   8.686  0.3813E+00  0.1223E+02
   8.696  0.3852E+00  0.1223E+02
   8.706  0.3888E+00  0.1223E+02
   8.716  0.3979E+00  0.1224E+02
   8.726  0.4006E+00  0.1224E+02
   8.736  0.4037E+00  0.1225E+02
   8.746  0.4074E+00  0.1225E+02
   8.756  0.4116E+00  0.1225E+02
   8.766  0.4161E+00  0.1226E+02
   8.776  0.4211E+00  0.1226E+02
   8.786  0.4238E+00  0.1227E+02
   8.796  0.4267E+00  0.1227E+02
   8.806  0.4302E+00  0.1228E+02
   8.816  0.4341E+00  0.1228E+02
   8.826  0.4385E+00  0.1228E+02
   8.836  0.4431E+00  0.1229E+02
   8.846  0.4469E+00  0.1229E+02
   8.856  0.4509E+00  0.1230E+02
   8.866  0.4549E+00  0.1230E+02
   8.876  0.4591E+00  0.1231E+02
   8.886  0.4634E+00  0.1231E+02
   8.896  0.4678E+00  0.1232E+02
   8.906  0.4723E+00  0.1232E+02
   8.916  0.4770E+00  0.1232E+02
   8.926  0.4817E+00  0.1233E+02
   8.936  0.4866E+00  0.1233E+02
   8.946  0.4916E+00  0.1234E+02
   8.956  0.4967E+00  0.1234E+02
   8.966  0.5024E+00  0.1235E+02
   8.976  0.5091E+00  0.1235E+02
   8.986  0.5161E+00  0.1236E+02
   8.996  0.5231E+00  0.1236E+02
   9.006  0.5298E+00  0.1237E+02
   9.016  0.5364E+00  0.1238E+02
   9.026  0.5430E+00  0.1238E+02
   9.036  0.5495E+00  0.1239E+02
   9.046  0.5560E+00  0.1239E+02
   9.056  0.5638E+00  0.1240E+02
   9.066  0.5700E+00  0.1240E+02
   9.076  0.5762E+00  0.1241E+02
   9.086  0.5845E+00  0.1241E+02
   9.096  0.5906E+00  0.1242E+02
   9.106  0.5942E+00  0.1243E+02
   9.116  0.5979E+00  0.1243E+02
   9.126  0.6054E+00  0.1244E+02
   9.136  0.6131E+00  0.1244E+02
   9.146  0.6208E+00  0.1245E+02
   9.156  0.6286E+00  0.1246E+02
   9.166  0.6365E+00  0.1246E+02
   9.176  0.6449E+00  0.1247E+02
   9.186  0.6542E+00  0.1248E+02
   9.196  0.6643E+00  0.1248E+02
   9.206  0.6752E+00  0.1249E+02
   9.216  0.6867E+00  0.1250E+02
   9.226  0.6986E+00  0.1250E+02
   9.236  0.7108E+00  0.1251E+02
   9.246  0.7233E+00  0.1252E+02
   9.256  0.7360E+00  0.1252E+02
   9.266  0.7489E+00  0.1253E+02
   9.276  0.7615E+00  0.1254E+02
   9.286  0.7736E+00  0.1255E+02
   9.296  0.7952E+00  0.1256E+02
   9.306  0.8070E+00  0.1256E+02
   9.316  0.8168E+00  0.1257E+02
   9.326  0.8273E+00  0.1258E+02
   9.336  0.8387E+00  0.1259E+02
   9.346  0.8454E+00  0.1260E+02
   9.356  0.8500E+00  0.1260E+02
   9.366  0.8545E+00  0.1261E+02
   9.376  0.8590E+00  0.1262E+02
   9.386  0.8634E+00  0.1263E+02
   9.396  0.8677E+00  0.1264E+02
   9.406  0.8720E+00  0.1265E+02
   9.416  0.8763E+00  0.1266E+02
   9.426  0.8819E+00  0.1267E+02
   9.436  0.8824E+00  0.1267E+02
   9.446  0.8771E+00  0.1268E+02
   9.456  0.8665E+00  0.1269E+02
   9.466  0.8535E+00  0.1270E+02
   9.476  0.8466E+00  0.1271E+02
   9.486  0.8423E+00  0.1272E+02
   9.496  0.8385E+00  0.1273E+02
   9.506  0.8353E+00  0.1273E+02
   9.516  0.8327E+00  0.1274E+02
   9.526  0.8305E+00  0.1275E+02
   9.536  0.8289E+00  0.1276E+02
   9.546  0.8276E+00  0.1277E+02
   9.556  0.8257E+00  0.1278E+02
   9.566  0.8240E+00  0.1278E+02
   9.576  0.8225E+00  0.1279E+02
   9.586  0.8213E+00  0.1280E+02
   9.596  0.8201E+00  0.1281E+02
   9.606  0.8190E+00  0.1282E+02
   9.616  0.8176E+00  0.1282E+02
   9.626  0.8164E+00  0.1283E+02
   9.636  0.8156E+00  0.1284E+02
   9.646  0.8176E+00  0.1285E+02
   9.656  0.8250E+00  0.1286E+02
   9.666  0.8193E+00  0.1287E+02
   9.676  0.8160E+00  0.1287E+02
   9.686  0.8141E+00  0.1288E+02
   9.696  0.8123E+00  0.1289E+02
   9.706  0.8105E+00  0.1290E+02
   9.716  0.8077E+00  0.1291E+02
   9.726  0.8050E+00  0.1291E+02
   9.736  0.8024E+00  0.1292E+02
   9.746  0.7998E+00  0.1293E+02
   9.756  0.7973E+00  0.1294E+02
   9.766  0.7949E+00  0.1295E+02
   9.776  0.7926E+00  0.1295E+02
   9.786  0.7899E+00  0.1296E+02
   9.796  0.7822E+00  0.1297E+02
   9.806  0.7717E+00  0.1298E+02
   9.816  0.7682E+00  0.1299E+02
   9.826  0.7647E+00  0.1299E+02
   9.836  0.7607E+00  0.1300E+02
   9.846  0.7564E+00  0.1301E+02
   9.856  0.7520E+00  0.1302E+02
   9.866  0.7475E+00  0.1302E+02
   9.876  0.7427E+00  0.1303E+02
   9.886  0.7361E+00  0.1304E+02
   9.896  0.7289E+00  0.1305E+02
   9.906  0.7211E+00  0.1305E+02
   9.916  0.7127E+00  0.1306E+02
   9.926  0.7067E+00  0.1307E+02
   9.936  0.7068E+00  0.1307E+02
   9.946  0.6732E+00  0.1308E+02
   9.956  0.6500E+00  0.1309E+02
   9.966  0.6272E+00  0.1309E+02
   9.976  0.6048E+00  0.1310E+02
   9.986  0.5870E+00  0.1311E+02
   9.996  0.5711E+00  0.1311E+02
  10.006  0.5564E+00  0.1312E+02
  10.016  0.5429E+00  0.1312E+02
  10.026  0.5306E+00  0.1313E+02
  10.036  0.5189E+00  0.1313E+02
  10.046  0.5077E+00  0.1314E+02
  10.056  0.4971E+00  0.1314E+02
  10.066  0.4869E+00  0.1315E+02
  10.076  0.4765E+00  0.1315E+02
  10.086  0.4661E+00  0.1316E+02
  10.096  0.4555E+00  0.1316E+02
  10.106  0.4456E+00  0.1317E+02
  10.116  0.4367E+00  0.1317E+02
  10.126  0.4286E+00  0.1318E+02
  10.136  0.4209E+00  0.1318E+02
  10.146  0.4135E+00  0.1318E+02
  10.156  0.4063E+00  0.1319E+02
  10.166  0.4008E+00  0.1319E+02
  10.176  0.3951E+00  0.1320E+02
  10.186  0.3892E+00  0.1320E+02
  10.196  0.3829E+00  0.1320E+02
  10.206  0.3763E+00  0.1321E+02
  10.216  0.3696E+00  0.1321E+02
  10.226  0.3636E+00  0.1322E+02
  10.236  0.3603E+00  0.1322E+02
  10.246  0.3587E+00  0.1322E+02
  10.256  0.3571E+00  0.1323E+02
  10.266  0.3554E+00  0.1323E+02
  10.276  0.3536E+00  0.1323E+02
  10.286  0.3517E+00  0.1324E+02
  10.296  0.3497E+00  0.1324E+02
  10.306  0.3475E+00  0.1324E+02
  10.316  0.3454E+00  0.1325E+02
  10.326  0.3436E+00  0.1325E+02
  10.336  0.3422E+00  0.1325E+02
  10.346  0.3414E+00  0.1326E+02
  10.356  0.3409E+00  0.1326E+02
  10.366  0.3405E+00  0.1326E+02
  10.376  0.3405E+00  0.1327E+02
  10.386  0.3408E+00  0.1327E+02
  10.396  0.3416E+00  0.1327E+02
  10.406  0.3428E+00  0.1328E+02
  10.416  0.3443E+00  0.1328E+02
  10.426  0.3460E+00  0.1329E+02
  10.436  0.3479E+00  0.1329E+02
  10.446  0.3501E+00  0.1329E+02
  10.456  0.3526E+00  0.1330E+02
  10.466  0.3553E+00  0.1330E+02
  10.476  0.3583E+00  0.1330E+02
  10.486  0.3619E+00  0.1331E+02
  10.496  0.3662E+00  0.1331E+02
  10.506  0.3711E+00  0.1331E+02
  10.516  0.3767E+00  0.1332E+02
  10.526  0.3829E+00  0.1332E+02
  10.536  0.3897E+00  0.1333E+02
  10.546  0.3961E+00  0.1333E+02
  10.556  0.4017E+00  0.1333E+02
  10.566  0.4051E+00  0.1334E+02
  10.576  0.4096E+00  0.1334E+02
  10.586  0.4145E+00  0.1335E+02
  10.596  0.4192E+00  0.1335E+02
  10.606  0.4239E+00  0.1335E+02
  10.616  0.4285E+00  0.1336E+02
  10.626  0.4330E+00  0.1336E+02
  10.636  0.4377E+00  0.1337E+02
  10.646  0.4425E+00  0.1337E+02
  10.656  0.4460E+00  0.1338E+02
  10.666  0.4489E+00  0.1338E+02
  10.676  0.4520E+00  0.1338E+02
  10.686  0.4551E+00  0.1339E+02
  10.696  0.4581E+00  0.1339E+02
  10.706  0.4610E+00  0.1340E+02
  10.716  0.4637E+00  0.1340E+02
  10.726  0.4663E+00  0.1341E+02
  10.736  0.4687E+00  0.1341E+02
  10.746  0.4709E+00  0.1342E+02
  10.756  0.4730E+00  0.1342E+02
  10.766  0.4749E+00  0.1343E+02
  10.776  0.4761E+00  0.1343E+02
  10.786  0.4790E+00  0.1344E+02
  10.796  0.4815E+00  0.1344E+02
  10.806  0.4834E+00  0.1345E+02
  10.816  0.4847E+00  0.1345E+02
  10.826  0.4857E+00  0.1346E+02
  10.836  0.4864E+00  0.1346E+02
  10.846  0.4872E+00  0.1346E+02
  10.856  0.4879E+00  0.1347E+02
  10.866  0.4886E+00  0.1347E+02
  10.876  0.4892E+00  0.1348E+02
  10.886  0.4900E+00  0.1348E+02
  10.896  0.4910E+00  0.1349E+02
  10.906  0.4923E+00  0.1349E+02
  10.916  0.4936E+00  0.1350E+02
  10.926  0.4950E+00  0.1350E+02
  10.936  0.4960E+00  0.1351E+02
  10.946  0.4951E+00  0.1351E+02
  10.956  0.4941E+00  0.1352E+02
  10.966  0.4933E+00  0.1352E+02
  10.976  0.4929E+00  0.1353E+02
  10.986  0.4927E+00  0.1353E+02
  10.996  0.4967E+00  0.1354E+02
  11.006  0.4990E+00  0.1354E+02
  11.016  0.4909E+00  0.1355E+02
  11.026  0.4833E+00  0.1355E+02
  11.036  0.4799E+00  0.1356E+02
  11.046  0.4806E+00  0.1356E+02
  11.056  0.4819E+00  0.1357E+02
  11.066  0.4826E+00  0.1357E+02
  11.076  0.4822E+00  0.1358E+02
  11.086  0.4819E+00  0.1358E+02
  11.096  0.4818E+00  0.1359E+02
  11.106  0.4819E+00  0.1359E+02
  11.116  0.4821E+00  0.1360E+02
  11.126  0.4825E+00  0.1360E+02
  11.136  0.4827E+00  0.1361E+02
  11.146  0.4831E+00  0.1361E+02
  11.156  0.4835E+00  0.1362E+02
  11.166  0.4840E+00  0.1362E+02
  11.176  0.4845E+00  0.1363E+02
  11.186  0.4852E+00  0.1363E+02
  11.196  0.4860E+00  0.1364E+02
  11.206  0.4868E+00  0.1364E+02
  11.216  0.4876E+00  0.1365E+02
  11.226  0.4884E+00  0.1365E+02
  11.236  0.4894E+00  0.1366E+02
  11.246  0.4903E+00  0.1366E+02
  11.256  0.4912E+00  0.1366E+02
  11.266  0.4920E+00  0.1367E+02
  11.276  0.4928E+00  0.1367E+02
  11.286  0.4935E+00  0.1368E+02
  11.296  0.4943E+00  0.1368E+02
  11.306  0.4950E+00  0.1369E+02
  11.316  0.4956E+00  0.1369E+02
  11.326  0.4962E+00  0.1370E+02
  11.336  0.4966E+00  0.1370E+02
  11.346  0.4970E+00  0.1371E+02
  11.356  0.4973E+00  0.1371E+02
  11.366  0.4975E+00  0.1372E+02
  11.376  0.4972E+00  0.1372E+02
  11.386  0.4970E+00  0.1373E+02
  11.396  0.4968E+00  0.1373E+02
  11.406  0.4966E+00  0.1374E+02
  11.416  0.4965E+00  0.1374E+02
  11.426  0.4965E+00  0.1375E+02
  11.436  0.4965E+00  0.1375E+02
  11.446  0.4965E+00  0.1376E+02
  11.456  0.4939E+00  0.1376E+02
  11.466  0.4918E+00  0.1377E+02
  11.476  0.4908E+00  0.1377E+02
  11.486  0.4907E+00  0.1378E+02
  11.496  0.4908E+00  0.1378E+02
  11.506  0.4910E+00  0.1379E+02
  11.516  0.4912E+00  0.1379E+02
  11.526  0.4914E+00  0.1380E+02
  11.536  0.4917E+00  0.1380E+02
  11.546  0.4921E+00  0.1381E+02
  11.556  0.4924E+00  0.1381E+02
  11.566  0.4928E+00  0.1382E+02
  11.576  0.4931E+00  0.1382E+02
  11.586  0.4939E+00  0.1383E+02
  11.596  0.4948E+00  0.1383E+02
  11.606  0.4954E+00  0.1384E+02
  11.616  0.4958E+00  0.1384E+02
  11.626  0.4960E+00  0.1385E+02
  11.636  0.4961E+00  0.1385E+02
  11.646  0.4960E+00  0.1386E+02
  11.656  0.4957E+00  0.1386E+02
  11.666  0.4952E+00  0.1387E+02
  11.676  0.4944E+00  0.1387E+02
  11.686  0.4935E+00  0.1388E+02
  11.696  0.4927E+00  0.1388E+02
  11.706  0.4921E+00  0.1389E+02
  11.716  0.4917E+00  0.1389E+02
  11.726  0.4913E+00  0.1390E+02
  11.736  0.4911E+00  0.1390E+02
  11.746  0.4909E+00  0.1391E+02
  11.756  0.4909E+00  0.1391E+02
  11.766  0.4910E+00  0.1392E+02
  11.776  0.4910E+00  0.1392E+02
  11.786  0.4911E+00  0.1393E+02
  11.796  0.4911E+00  0.1393E+02
  11.806  0.4912E+00  0.1394E+02
  11.816  0.4912E+00  0.1394E+02
  11.826  0.4913E+00  0.1395E+02
  11.836  0.4915E+00  0.1395E+02
  11.846  0.4917E+00  0.1396E+02
  11.856  0.4920E+00  0.1396E+02
  11.866  0.4925E+00  0.1397E+02
  11.876  0.4930E+00  0.1397E+02
  11.886  0.4936E+00  0.1398E+02
  11.896  0.4942E+00  0.1398E+02
  11.906  0.4946E+00  0.1399E+02
  11.916  0.4943E+00  0.1399E+02
  11.926  0.4932E+00  0.1400E+02
  11.936  0.4915E+00  0.1400E+02
  11.946  0.4907E+00  0.1401E+02
  11.956  0.4905E+00  0.1401E+02
  11.966  0.4902E+00  0.1402E+02
  11.976  0.4899E+00  0.1402E+02
  11.986  0.4897E+00  0.1402E+02
  11.996  0.4895E+00  0.1403E+02
  12.006  0.4892E+00  0.1403E+02
  12.016  0.4889E+00  0.1404E+02
  12.026  0.4887E+00  0.1404E+02
  12.036  0.4885E+00  0.1405E+02
  12.046  0.4882E+00  0.1405E+02
  12.056  0.4879E+00  0.1406E+02
  12.066  0.4877E+00  0.1406E+02
  12.076  0.4875E+00  0.1407E+02
  12.086  0.4873E+00  0.1407E+02
  12.096  0.4847E+00  0.1408E+02
  12.106  0.4843E+00  0.1408E+02
  12.116  0.4840E+00  0.1409E+02
  12.126  0.4838E+00  0.1409E+02
  12.136  0.4836E+00  0.1410E+02
  12.146  0.4833E+00  0.1410E+02
  12.156  0.4832E+00  0.1411E+02
  12.166  0.4830E+00  0.1411E+02
  12.176  0.4829E+00  0.1412E+02
  12.186  0.4828E+00  0.1412E+02
  12.196  0.4827E+00  0.1413E+02
  12.206  0.4827E+00  0.1413E+02
  12.216  0.4826E+00  0.1414E+02
  12.226  0.4827E+00  0.1414E+02
  12.236  0.4827E+00  0.1415E+02
  12.246  0.4827E+00  0.1415E+02
  12.256  0.4828E+00  0.1416E+02
  12.266  0.4829E+00  0.1416E+02
  12.276  0.4831E+00  0.1417E+02
  12.286  0.4833E+00  0.1417E+02
  12.296  0.4838E+00  0.1418E+02
  12.306  0.4849E+00  0.1418E+02
  12.316  0.4862E+00  0.1419E+02
  12.326  0.4870E+00  0.1419E+02
  12.336  0.4874E+00  0.1419E+02
  12.346  0.4875E+00  0.1420E+02
  12.356  0.4873E+00  0.1420E+02
  12.366  0.4868E+00  0.1421E+02
  12.376  0.4878E+00  0.1421E+02
  12.386  0.4881E+00  0.1422E+02
  12.396  0.4827E+00  0.1422E+02
  12.406  0.4814E+00  0.1423E+02
  12.416  0.4809E+00  0.1423E+02
  12.426  0.4805E+00  0.1424E+02
  12.436  0.4800E+00  0.1424E+02
  12.446  0.4794E+00  0.1425E+02
  12.456  0.4788E+00  0.1425E+02
  12.466  0.4782E+00  0.1426E+02
  12.476  0.4774E+00  0.1426E+02
  12.486  0.4766E+00  0.1427E+02
  12.496  0.4760E+00  0.1427E+02
  12.506  0.4754E+00  0.1428E+02
  12.516  0.4748E+00  0.1428E+02
  12.526  0.4742E+00  0.1429E+02
  12.536  0.4736E+00  0.1429E+02
  12.546  0.4732E+00  0.1430E+02
  12.556  0.4726E+00  0.1430E+02
  12.566  0.4719E+00  0.1431E+02
  12.576  0.4713E+00  0.1431E+02
  12.586  0.4711E+00  0.1431E+02
  12.596  0.4712E+00  0.1432E+02
  12.606  0.4705E+00  0.1432E+02
  12.616  0.4702E+00  0.1433E+02
  12.626  0.4702E+00  0.1433E+02
  12.636  0.4702E+00  0.1434E+02
  12.646  0.4701E+00  0.1434E+02
  12.656  0.4701E+00  0.1435E+02
  12.666  0.4701E+00  0.1435E+02
  12.676  0.4700E+00  0.1436E+02
  12.686  0.4698E+00  0.1436E+02
  12.696  0.4695E+00  0.1437E+02
  12.706  0.4693E+00  0.1437E+02
  12.716  0.4690E+00  0.1438E+02
  12.726  0.4687E+00  0.1438E+02
  12.736  0.4683E+00  0.1439E+02
  12.746  0.4680E+00  0.1439E+02
  12.756  0.4677E+00  0.1439E+02
  12.766  0.4673E+00  0.1440E+02
  12.776  0.4670E+00  0.1440E+02
  12.786  0.4666E+00  0.1441E+02
  12.796  0.4662E+00  0.1441E+02
  12.806  0.4657E+00  0.1442E+02
  12.816  0.4651E+00  0.1442E+02
  12.826  0.4646E+00  0.1443E+02
  12.836  0.4640E+00  0.1443E+02
  12.846  0.4635E+00  0.1444E+02
  12.856  0.4629E+00  0.1444E+02
  12.866  0.4624E+00  0.1445E+02
  12.876  0.4619E+00  0.1445E+02
  12.886  0.4614E+00  0.1445E+02
  12.896  0.4610E+00  0.1446E+02
  12.906  0.4605E+00  0.1446E+02
  12.916  0.4601E+00  0.1447E+02
  12.926  0.4596E+00  0.1447E+02
  12.936  0.4592E+00  0.1448E+02
  12.946  0.4587E+00  0.1448E+02
  12.956  0.4583E+00  0.1449E+02
  12.966  0.4580E+00  0.1449E+02
  12.976  0.4576E+00  0.1450E+02
  12.986  0.4572E+00  0.1450E+02
  12.996  0.4566E+00  0.1451E+02
  13.006  0.4561E+00  0.1451E+02
  13.016  0.4557E+00  0.1451E+02
  13.026  0.4552E+00  0.1452E+02
  13.036  0.4548E+00  0.1452E+02
  13.046  0.4552E+00  0.1453E+02
  13.056  0.4567E+00  0.1453E+02
  13.066  0.4594E+00  0.1454E+02
  13.076  0.4633E+00  0.1454E+02
  13.086  0.4585E+00  0.1455E+02
  13.096  0.4597E+00  0.1455E+02
  13.106  0.4601E+00  0.1456E+02
  13.116  0.4596E+00  0.1456E+02
  13.126  0.4583E+00  0.1456E+02
  13.136  0.4568E+00  0.1457E+02
  13.146  0.4557E+00  0.1457E+02
  13.156  0.4548E+00  0.1458E+02
  13.166  0.4539E+00  0.1458E+02
  13.176  0.4530E+00  0.1459E+02
  13.186  0.4519E+00  0.1459E+02
  13.196  0.4507E+00  0.1460E+02
  13.206  0.4495E+00  0.1460E+02
  13.216  0.4481E+00  0.1461E+02
  13.226  0.4472E+00  0.1461E+02
  13.236  0.4463E+00  0.1461E+02
  13.246  0.4453E+00  0.1462E+02
  13.256  0.4443E+00  0.1462E+02
  13.266  0.4436E+00  0.1463E+02
  13.276  0.4436E+00  0.1463E+02
  13.286  0.4436E+00  0.1464E+02
  13.296  0.4435E+00  0.1464E+02
  13.306  0.4433E+00  0.1465E+02
  13.316  0.4431E+00  0.1465E+02
  13.326  0.4427E+00  0.1465E+02
  13.336  0.4420E+00  0.1466E+02
  13.346  0.4408E+00  0.1466E+02
  13.356  0.4400E+00  0.1467E+02
  13.366  0.4395E+00  0.1467E+02
  13.376  0.4390E+00  0.1468E+02
  13.386  0.4386E+00  0.1468E+02
  13.396  0.4381E+00  0.1469E+02
  13.406  0.4377E+00  0.1469E+02
  13.416  0.4373E+00  0.1469E+02
  13.426  0.4368E+00  0.1470E+02
  13.436  0.4364E+00  0.1470E+02
  13.446  0.4360E+00  0.1471E+02
  13.456  0.4356E+00  0.1471E+02
  13.466  0.4352E+00  0.1472E+02
  13.476  0.4349E+00  0.1472E+02
  13.486  0.4345E+00  0.1472E+02
  13.496  0.4341E+00  0.1473E+02
  13.506  0.4337E+00  0.1473E+02
  13.516  0.4331E+00  0.1474E+02
  13.526  0.4326E+00  0.1474E+02
  13.536  0.4320E+00  0.1475E+02
  13.546  0.4313E+00  0.1475E+02
  13.556  0.4307E+00  0.1475E+02
  13.566  0.4300E+00  0.1476E+02
  13.576  0.4293E+00  0.1476E+02
  13.586  0.4285E+00  0.1477E+02
  13.596  0.4278E+00  0.1477E+02
  13.606  0.4269E+00  0.1478E+02
  13.616  0.4260E+00  0.1478E+02
  13.626  0.4254E+00  0.1478E+02
  13.636  0.4251E+00  0.1479E+02
  13.646  0.4246E+00  0.1479E+02
  13.656  0.4240E+00  0.1480E+02
  13.666  0.4234E+00  0.1480E+02
  13.676  0.4227E+00  0.1481E+02
  13.686  0.4220E+00  0.1481E+02
  13.696  0.4214E+00  0.1481E+02
  13.706  0.4209E+00  0.1482E+02
  13.716  0.4204E+00  0.1482E+02
  13.726  0.4304E+00  0.1483E+02
  13.736  0.4310E+00  0.1483E+02
  13.746  0.4311E+00  0.1484E+02
  13.756  0.4310E+00  0.1484E+02
  13.766  0.4305E+00  0.1484E+02
  13.776  0.4297E+00  0.1485E+02
  13.786  0.4286E+00  0.1485E+02
  13.796  0.4271E+00  0.1486E+02
  13.806  0.4254E+00  0.1486E+02
  13.816  0.4236E+00  0.1487E+02
  13.826  0.4216E+00  0.1487E+02
  13.836  0.4195E+00  0.1487E+02
  13.846  0.4171E+00  0.1488E+02
  13.856  0.4146E+00  0.1488E+02
  13.866  0.4120E+00  0.1489E+02
  13.876  0.4103E+00  0.1489E+02
  13.886  0.4089E+00  0.1490E+02
  13.896  0.4076E+00  0.1490E+02
  13.906  0.4060E+00  0.1490E+02
  13.916  0.4045E+00  0.1491E+02
  13.926  0.4029E+00  0.1491E+02
  13.936  0.4012E+00  0.1492E+02
  13.946  0.3994E+00  0.1492E+02
  13.956  0.3975E+00  0.1492E+02
  13.966  0.3955E+00  0.1493E+02
  13.976  0.3936E+00  0.1493E+02
  13.986  0.3917E+00  0.1494E+02
  13.996  0.3898E+00  0.1494E+02
  14.006  0.3880E+00  0.1494E+02
  14.016  0.3862E+00  0.1495E+02
  14.026  0.3846E+00  0.1495E+02
  14.036  0.3830E+00  0.1495E+02
  14.046  0.3816E+00  0.1496E+02
  14.056  0.3802E+00  0.1496E+02
  14.066  0.3790E+00  0.1497E+02
  14.076  0.3777E+00  0.1497E+02
  14.086  0.3765E+00  0.1497E+02
  14.096  0.3754E+00  0.1498E+02
  14.106  0.3742E+00  0.1498E+02
  14.116  0.3725E+00  0.1498E+02
  14.126  0.3714E+00  0.1499E+02
  14.136  0.3704E+00  0.1499E+02
  14.146  0.3696E+00  0.1500E+02
  14.156  0.3688E+00  0.1500E+02
  14.166  0.3677E+00  0.1500E+02
  14.176  0.3672E+00  0.1501E+02
  14.186  0.3670E+00  0.1501E+02
  14.196  0.3666E+00  0.1501E+02
  14.206  0.3661E+00  0.1502E+02
  14.216  0.3655E+00  0.1502E+02
  14.226  0.3648E+00  0.1503E+02
  14.236  0.3639E+00  0.1503E+02
  14.246  0.3629E+00  0.1503E+02
  14.256  0.3619E+00  0.1504E+02
  14.266  0.3608E+00  0.1504E+02
  14.276  0.3595E+00  0.1504E+02
  14.286  0.3584E+00  0.1505E+02
  14.296  0.3572E+00  0.1505E+02
  14.306  0.3561E+00  0.1505E+02
  14.316  0.3550E+00  0.1506E+02
  14.326  0.3540E+00  0.1506E+02
  14.336  0.3531E+00  0.1506E+02
  14.346  0.3524E+00  0.1507E+02
  14.356  0.3517E+00  0.1507E+02
  14.366  0.3511E+00  0.1508E+02
  14.376  0.3505E+00  0.1508E+02
  14.386  0.3500E+00  0.1508E+02
  14.396  0.3495E+00  0.1509E+02
  14.406  0.3491E+00  0.1509E+02
  14.416  0.3486E+00  0.1509E+02
  14.426  0.3482E+00  0.1510E+02
  14.436  0.3477E+00  0.1510E+02
  14.446  0.3473E+00  0.1510E+02
  14.456  0.3469E+00  0.1511E+02
  14.466  0.3464E+00  0.1511E+02
  14.476  0.3459E+00  0.1511E+02
  14.486  0.3454E+00  0.1512E+02
  14.496  0.3448E+00  0.1512E+02
  14.506  0.3443E+00  0.1512E+02
  14.516  0.3438E+00  0.1513E+02
  14.526  0.3432E+00  0.1513E+02
  14.536  0.3426E+00  0.1513E+02
  14.546  0.3419E+00  0.1514E+02
  14.556  0.3412E+00  0.1514E+02
  14.566  0.3404E+00  0.1514E+02
  14.576  0.3395E+00  0.1515E+02
  14.586  0.3386E+00  0.1515E+02
  14.596  0.3377E+00  0.1515E+02
  14.606  0.3368E+00  0.1516E+02
  14.616  0.3359E+00  0.1516E+02
  14.626  0.3371E+00  0.1516E+02
  14.636  0.3361E+00  0.1517E+02
  14.646  0.3350E+00  0.1517E+02
  14.656  0.3340E+00  0.1517E+02
  14.666  0.3329E+00  0.1518E+02
  14.676  0.3320E+00  0.1518E+02
  14.686  0.3312E+00  0.1518E+02
  14.696  0.3304E+00  0.1519E+02
  14.706  0.3296E+00  0.1519E+02
  14.716  0.3287E+00  0.1519E+02
  14.726  0.3278E+00  0.1520E+02
  14.736  0.3269E+00  0.1520E+02
  14.746  0.3260E+00  0.1520E+02
  14.756  0.3249E+00  0.1521E+02
  14.766  0.3242E+00  0.1521E+02
  14.776  0.3234E+00  0.1521E+02
  14.786  0.3227E+00  0.1522E+02
  14.796  0.3205E+00  0.1522E+02
  14.806  0.3184E+00  0.1522E+02
  14.816  0.3176E+00  0.1523E+02
  14.826  0.3168E+00  0.1523E+02
  14.836  0.3160E+00  0.1523E+02
  14.846  0.3152E+00  0.1524E+02
  14.856  0.3144E+00  0.1524E+02
  14.866  0.3137E+00  0.1524E+02
  14.876  0.3130E+00  0.1525E+02
  14.886  0.3122E+00  0.1525E+02
  14.896  0.3115E+00  0.1525E+02
  14.906  0.3108E+00  0.1526E+02
  14.916  0.3101E+00  0.1526E+02
  14.926  0.3095E+00  0.1526E+02
  14.936  0.3088E+00  0.1526E+02
  14.946  0.3082E+00  0.1527E+02
  14.956  0.3075E+00  0.1527E+02
  14.966  0.3069E+00  0.1527E+02
  14.976  0.3063E+00  0.1528E+02
  14.986  0.3056E+00  0.1528E+02
  14.996  0.3050E+00  0.1528E+02
  15.006  0.3044E+00  0.1529E+02
  15.016  0.3038E+00  0.1529E+02
  15.026  0.3032E+00  0.1529E+02
  15.036  0.3026E+00  0.1530E+02
  15.046  0.3020E+00  0.1530E+02
  15.056  0.3014E+00  0.1530E+02
  15.066  0.3008E+00  0.1530E+02
  15.076  0.3002E+00  0.1531E+02
  15.086  0.2996E+00  0.1531E+02
  15.096  0.2991E+00  0.1531E+02
  15.106  0.2986E+00  0.1532E+02
  15.116  0.2981E+00  0.1532E+02
  15.126  0.2977E+00  0.1532E+02
  15.136  0.2973E+00  0.1533E+02
  15.146  0.2970E+00  0.1533E+02
  15.156  0.2967E+00  0.1533E+02
  15.166  0.2964E+00  0.1533E+02
  15.176  0.2962E+00  0.1534E+02
  15.186  0.2960E+00  0.1534E+02
  15.196  0.2958E+00  0.1534E+02
  15.206  0.2957E+00  0.1535E+02
  15.216  0.2956E+00  0.1535E+02
  15.226  0.2955E+00  0.1535E+02
  15.236  0.2954E+00  0.1535E+02
  15.246  0.2951E+00  0.1536E+02
  15.256  0.2948E+00  0.1536E+02
  15.266  0.2945E+00  0.1536E+02
  15.276  0.2941E+00  0.1537E+02
  15.286  0.2936E+00  0.1537E+02
  15.296  0.2931E+00  0.1537E+02
  15.306  0.2927E+00  0.1538E+02
  15.316  0.2921E+00  0.1538E+02
  15.326  0.2916E+00  0.1538E+02
  15.336  0.2911E+00  0.1538E+02
  15.346  0.2904E+00  0.1539E+02
  15.356  0.2897E+00  0.1539E+02
  15.366  0.2889E+00  0.1539E+02
  15.376  0.2881E+00  0.1540E+02
  15.386  0.2872E+00  0.1540E+02
  15.396  0.2863E+00  0.1540E+02
  15.406  0.2854E+00  0.1540E+02
  15.416  0.2845E+00  0.1541E+02
  15.426  0.2835E+00  0.1541E+02
  15.436  0.2826E+00  0.1541E+02
  15.446  0.2817E+00  0.1542E+02
  15.456  0.2808E+00  0.1542E+02
  15.466  0.2798E+00  0.1542E+02
  15.476  0.2790E+00  0.1542E+02
  15.486  0.2783E+00  0.1543E+02
  15.496  0.2777E+00  0.1543E+02
  15.506  0.2762E+00  0.1543E+02
  15.516  0.2750E+00  0.1544E+02
  15.526  0.2743E+00  0.1544E+02
  15.536  0.2738E+00  0.1544E+02
  15.546  0.2733E+00  0.1544E+02
  15.556  0.2729E+00  0.1545E+02
  15.566  0.2725E+00  0.1545E+02
  15.576  0.2720E+00  0.1545E+02
  15.586  0.2716E+00  0.1545E+02
  15.596  0.2712E+00  0.1546E+02
  15.606  0.2708E+00  0.1546E+02
  15.616  0.2703E+00  0.1546E+02
  15.626  0.2698E+00  0.1547E+02
  15.636  0.2692E+00  0.1547E+02
  15.646  0.2687E+00  0.1547E+02
  15.656  0.2681E+00  0.1547E+02
  15.666  0.2676E+00  0.1548E+02
  15.676  0.2670E+00  0.1548E+02
  15.686  0.2665E+00  0.1548E+02
  15.696  0.2659E+00  0.1548E+02
  15.706  0.2654E+00  0.1549E+02
  15.716  0.2648E+00  0.1549E+02
  15.726  0.2643E+00  0.1549E+02
  15.736  0.2638E+00  0.1549E+02
  15.746  0.2633E+00  0.1550E+02
  15.756  0.2628E+00  0.1550E+02
  15.766  0.2623E+00  0.1550E+02
  15.776  0.2619E+00  0.1551E+02
  15.786  0.2614E+00  0.1551E+02
  15.796  0.2610E+00  0.1551E+02
  15.806  0.2606E+00  0.1551E+02
  15.816  0.2601E+00  0.1552E+02
  15.826  0.2597E+00  0.1552E+02
  15.836  0.2593E+00  0.1552E+02
  15.846  0.2588E+00  0.1552E+02
  15.856  0.2584E+00  0.1553E+02
  15.866  0.2579E+00  0.1553E+02
  15.876  0.2574E+00  0.1553E+02
  15.886  0.2570E+00  0.1553E+02
  15.896  0.2564E+00  0.1554E+02
  15.906  0.2559E+00  0.1554E+02
  15.916  0.2554E+00  0.1554E+02
  15.926  0.2549E+00  0.1554E+02
  15.936  0.2544E+00  0.1555E+02
  15.946  0.2540E+00  0.1555E+02
  15.956  0.2536E+00  0.1555E+02
  15.966  0.2533E+00  0.1555E+02
  15.976  0.2530E+00  0.1556E+02
  15.986  0.2527E+00  0.1556E+02
  15.996  0.2526E+00  0.1556E+02
  16.006  0.2546E+00  0.1556E+02
  16.016  0.2572E+00  0.1557E+02
  16.026  0.2560E+00  0.1557E+02
  16.036  0.2522E+00  0.1557E+02
  16.046  0.2521E+00  0.1557E+02
  16.056  0.2516E+00  0.1558E+02
  16.066  0.2509E+00  0.1558E+02
  16.076  0.2502E+00  0.1558E+02
  16.086  0.2495E+00  0.1558E+02
  16.096  0.2486E+00  0.1559E+02
  16.106  0.2478E+00  0.1559E+02
  16.116  0.2470E+00  0.1559E+02
  16.126  0.2463E+00  0.1559E+02
  16.136  0.2455E+00  0.1560E+02
  16.146  0.2447E+00  0.1560E+02
  16.156  0.2440E+00  0.1560E+02
  16.166  0.2432E+00  0.1560E+02
  16.176  0.2425E+00  0.1561E+02
  16.186  0.2418E+00  0.1561E+02
  16.196  0.2410E+00  0.1561E+02
  16.206  0.2403E+00  0.1561E+02
  16.216  0.2396E+00  0.1562E+02
  16.226  0.2389E+00  0.1562E+02
  16.236  0.2383E+00  0.1562E+02
  16.246  0.2378E+00  0.1562E+02
  16.256  0.2375E+00  0.1563E+02
  16.266  0.2374E+00  0.1563E+02
  16.276  0.2368E+00  0.1563E+02
  16.286  0.2363E+00  0.1563E+02
  16.296  0.2358E+00  0.1564E+02
  16.306  0.2354E+00  0.1564E+02
  16.316  0.2349E+00  0.1564E+02
  16.326  0.2345E+00  0.1564E+02
  16.336  0.2341E+00  0.1564E+02
  16.346  0.2337E+00  0.1565E+02
  16.356  0.2333E+00  0.1565E+02
  16.366  0.2329E+00  0.1565E+02
  16.376  0.2324E+00  0.1565E+02
  16.386  0.2320E+00  0.1566E+02
  16.396  0.2316E+00  0.1566E+02
  16.406  0.2312E+00  0.1566E+02
  16.416  0.2307E+00  0.1566E+02
  16.426  0.2302E+00  0.1567E+02
  16.436  0.2298E+00  0.1567E+02
  16.446  0.2293E+00  0.1567E+02
  16.456  0.2289E+00  0.1567E+02
  16.466  0.2284E+00  0.1567E+02
  16.476  0.2280E+00  0.1568E+02
  16.486  0.2276E+00  0.1568E+02
  16.496  0.2272E+00  0.1568E+02
  16.506  0.2268E+00  0.1568E+02
  16.516  0.2264E+00  0.1569E+02
  16.526  0.2261E+00  0.1569E+02
  16.536  0.2257E+00  0.1569E+02
  16.546  0.2255E+00  0.1569E+02
  16.556  0.2253E+00  0.1570E+02
  16.566  0.2251E+00  0.1570E+02
  16.576  0.2249E+00  0.1570E+02
  16.586  0.2248E+00  0.1570E+02
  16.596  0.2247E+00  0.1570E+02
  16.606  0.2246E+00  0.1571E+02
  16.616  0.2245E+00  0.1571E+02
  16.626  0.2244E+00  0.1571E+02
  16.636  0.2248E+00  0.1571E+02
  16.646  0.2253E+00  0.1572E+02
  16.656  0.2243E+00  0.1572E+02
  16.666  0.2228E+00  0.1572E+02
  16.676  0.2210E+00  0.1572E+02
  16.686  0.2188E+00  0.1572E+02
  16.696  0.2179E+00  0.1573E+02
  16.706  0.2175E+00  0.1573E+02
  16.716  0.2171E+00  0.1573E+02
  16.726  0.2167E+00  0.1573E+02
  16.736  0.2162E+00  0.1574E+02
  16.746  0.2158E+00  0.1574E+02
  16.756  0.2169E+00  0.1574E+02
  16.766  0.2197E+00  0.1574E+02
  16.776  0.2184E+00  0.1574E+02
  16.786  0.2138E+00  0.1575E+02
  16.796  0.2133E+00  0.1575E+02
  16.806  0.2126E+00  0.1575E+02
  16.816  0.2120E+00  0.1575E+02
  16.826  0.2114E+00  0.1575E+02
  16.836  0.2107E+00  0.1576E+02
  16.846  0.2101E+00  0.1576E+02
  16.856  0.2094E+00  0.1576E+02
  16.866  0.2087E+00  0.1576E+02
  16.876  0.2080E+00  0.1576E+02
  16.886  0.2072E+00  0.1577E+02
  16.896  0.2065E+00  0.1577E+02
  16.906  0.2057E+00  0.1577E+02
  16.916  0.2050E+00  0.1577E+02
  16.926  0.2042E+00  0.1578E+02
  16.936  0.2034E+00  0.1578E+02
  16.946  0.2025E+00  0.1578E+02
  16.956  0.2017E+00  0.1578E+02
  16.966  0.2008E+00  0.1578E+02
  16.976  0.1999E+00  0.1579E+02
  16.986  0.1990E+00  0.1579E+02
  16.996  0.1980E+00  0.1579E+02
  17.006  0.1970E+00  0.1579E+02
  17.016  0.1960E+00  0.1579E+02
  17.026  0.1950E+00  0.1580E+02
  17.036  0.1940E+00  0.1580E+02
  17.046  0.1930E+00  0.1580E+02
  17.056  0.1920E+00  0.1580E+02
  17.066  0.1910E+00  0.1580E+02
  17.076  0.1901E+00  0.1580E+02
  17.086  0.1893E+00  0.1581E+02
  17.096  0.1885E+00  0.1581E+02
  17.106  0.1876E+00  0.1581E+02
  17.116  0.1868E+00  0.1581E+02
  17.126  0.1860E+00  0.1581E+02
  17.136  0.1852E+00  0.1582E+02
  17.146  0.1844E+00  0.1582E+02
  17.156  0.1836E+00  0.1582E+02
  17.166  0.1829E+00  0.1582E+02
  17.176  0.1821E+00  0.1582E+02
  17.186  0.1814E+00  0.1583E+02
  17.196  0.1806E+00  0.1583E+02
  17.206  0.1802E+00  0.1583E+02
  17.216  0.1822E+00  0.1583E+02
  17.226  0.1847E+00  0.1583E+02
  17.236  0.1876E+00  0.1583E+02
  17.246  0.1900E+00  0.1584E+02
  17.256  0.1913E+00  0.1584E+02
  17.266  0.1920E+00  0.1584E+02
  17.276  0.1923E+00  0.1584E+02
  17.286  0.1921E+00  0.1584E+02
  17.296  0.1910E+00  0.1585E+02
  17.306  0.1891E+00  0.1585E+02
  17.316  0.1864E+00  0.1585E+02
  17.326  0.1828E+00  0.1585E+02
  17.336  0.1814E+00  0.1585E+02
  17.346  0.1801E+00  0.1586E+02
  17.356  0.1787E+00  0.1586E+02
  17.366  0.1772E+00  0.1586E+02
  17.376  0.1758E+00  0.1586E+02
  17.386  0.1743E+00  0.1586E+02
  17.396  0.1729E+00  0.1586E+02
  17.406  0.1714E+00  0.1587E+02
  17.416  0.1699E+00  0.1587E+02
  17.426  0.1684E+00  0.1587E+02
  17.436  0.1669E+00  0.1587E+02
  17.446  0.1654E+00  0.1587E+02
  17.456  0.1638E+00  0.1587E+02
  17.466  0.1623E+00  0.1588E+02
  17.476  0.1607E+00  0.1588E+02
  17.486  0.1591E+00  0.1588E+02
  17.496  0.1575E+00  0.1588E+02
  17.506  0.1558E+00  0.1588E+02
  17.516  0.1541E+00  0.1588E+02
  17.526  0.1524E+00  0.1589E+02
  17.536  0.1507E+00  0.1589E+02
  17.546  0.1490E+00  0.1589E+02
  17.556  0.1500E+00  0.1589E+02
  17.566  0.1492E+00  0.1589E+02
  17.576  0.1467E+00  0.1589E+02
  17.586  0.1424E+00  0.1589E+02
  17.596  0.1400E+00  0.1590E+02
  17.606  0.1382E+00  0.1590E+02
  17.616  0.1363E+00  0.1590E+02
  17.626  0.1344E+00  0.1590E+02
  17.636  0.1325E+00  0.1590E+02
  17.646  0.1306E+00  0.1590E+02
  17.656  0.1287E+00  0.1590E+02
  17.666  0.1268E+00  0.1590E+02
  17.676  0.1249E+00  0.1591E+02
  17.686  0.1231E+00  0.1591E+02
  17.696  0.1212E+00  0.1591E+02
  17.706  0.1192E+00  0.1591E+02
  17.716  0.1173E+00  0.1591E+02
  17.726  0.1155E+00  0.1591E+02
  17.736  0.1138E+00  0.1591E+02
  17.746  0.1122E+00  0.1591E+02
  17.756  0.1106E+00  0.1592E+02
  17.766  0.1091E+00  0.1592E+02
  17.776  0.1076E+00  0.1592E+02
  17.786  0.1062E+00  0.1592E+02
  17.796  0.1048E+00  0.1592E+02
  17.806  0.1034E+00  0.1592E+02
  17.816  0.1021E+00  0.1592E+02
  17.826  0.1008E+00  0.1592E+02
  17.836  0.9951E-01  0.1592E+02
  17.846  0.9825E-01  0.1592E+02
  17.856  0.9700E-01  0.1593E+02
  17.866  0.9580E-01  0.1593E+02
  17.876  0.9464E-01  0.1593E+02
  17.886  0.9350E-01  0.1593E+02
  17.896  0.9240E-01  0.1593E+02
  17.906  0.9131E-01  0.1593E+02
  17.916  0.9026E-01  0.1593E+02
  17.926  0.8923E-01  0.1593E+02
  17.936  0.8823E-01  0.1593E+02
  17.946  0.8724E-01  0.1593E+02
  17.956  0.8628E-01  0.1593E+02
  17.966  0.8533E-01  0.1594E+02
  17.976  0.8448E-01  0.1594E+02
  17.986  0.8369E-01  0.1594E+02
  17.996  0.8295E-01  0.1594E+02
  18.006  0.8220E-01  0.1594E+02
  18.016  0.8146E-01  0.1594E+02
  18.026  0.8072E-01  0.1594E+02
  18.036  0.7998E-01  0.1594E+02
  18.046  0.7924E-01  0.1594E+02
  18.056  0.7851E-01  0.1594E+02
  18.066  0.7777E-01  0.1594E+02
  18.076  0.7704E-01  0.1594E+02
  18.086  0.7631E-01  0.1595E+02
  18.096  0.7558E-01  0.1595E+02
  18.106  0.7485E-01  0.1595E+02
  18.116  0.7412E-01  0.1595E+02
  18.126  0.7339E-01  0.1595E+02
  18.136  0.7266E-01  0.1595E+02
  18.146  0.7194E-01  0.1595E+02
  18.156  0.7121E-01  0.1595E+02
  18.166  0.7049E-01  0.1595E+02
  18.176  0.6977E-01  0.1595E+02
  18.186  0.6905E-01  0.1595E+02
  18.196  0.6832E-01  0.1595E+02
  18.206  0.6759E-01  0.1595E+02
  18.216  0.6690E-01  0.1595E+02
  18.226  0.6627E-01  0.1596E+02
  18.236  0.6565E-01  0.1596E+02
  18.246  0.6542E-01  0.1596E+02
  18.256  0.6516E-01  0.1596E+02
  18.266  0.6486E-01  0.1596E+02
  18.276  0.6453E-01  0.1596E+02
  18.286  0.6417E-01  0.1596E+02
  18.296  0.6386E-01  0.1596E+02
  18.306  0.6352E-01  0.1596E+02
  18.316  0.6315E-01  0.1596E+02
  18.326  0.6276E-01  0.1596E+02
  18.336  0.6233E-01  0.1596E+02
  18.346  0.6187E-01  0.1596E+02
  18.356  0.6138E-01  0.1596E+02
  18.366  0.6476E-01  0.1596E+02
  18.376  0.6539E-01  0.1597E+02
  18.386  0.6149E-01  0.1597E+02
  18.396  0.5882E-01  0.1597E+02
  18.406  0.5801E-01  0.1597E+02
  18.416  0.5721E-01  0.1597E+02
  18.426  0.5640E-01  0.1597E+02
  18.436  0.5558E-01  0.1597E+02
  18.446  0.5476E-01  0.1597E+02
  18.456  0.5393E-01  0.1597E+02
  18.466  0.5310E-01  0.1597E+02
  18.476  0.5226E-01  0.1597E+02
  18.486  0.5142E-01  0.1597E+02
  18.496  0.5060E-01  0.1597E+02
  18.506  0.4995E-01  0.1597E+02
  18.516  0.4933E-01  0.1597E+02
  18.526  0.4873E-01  0.1597E+02
  18.536  0.4812E-01  0.1597E+02
  18.546  0.4753E-01  0.1597E+02
  18.556  0.4694E-01  0.1597E+02
  18.566  0.4635E-01  0.1598E+02
  18.576  0.4577E-01  0.1598E+02
  18.586  0.4520E-01  0.1598E+02
  18.596  0.4463E-01  0.1598E+02
  18.606  0.4406E-01  0.1598E+02
  18.616  0.4351E-01  0.1598E+02
  18.626  0.4295E-01  0.1598E+02
  18.636  0.4246E-01  0.1598E+02
  18.646  0.4209E-01  0.1598E+02
  18.656  0.4171E-01  0.1598E+02
  18.666  0.4132E-01  0.1598E+02
  18.676  0.4092E-01  0.1598E+02
  18.686  0.4051E-01  0.1598E+02
  18.696  0.4008E-01  0.1598E+02
  18.706  0.3965E-01  0.1598E+02
  18.716  0.3920E-01  0.1598E+02
  18.726  0.3874E-01  0.1598E+02
  18.736  0.3826E-01  0.1598E+02
  18.746  0.3776E-01  0.1598E+02
  18.756  0.3723E-01  0.1598E+02
  18.766  0.3668E-01  0.1598E+02
  18.776  0.3611E-01  0.1598E+02
  18.786  0.3551E-01  0.1598E+02
  18.796  0.3489E-01  0.1598E+02
  18.806  0.3446E-01  0.1598E+02
  18.816  0.3404E-01  0.1599E+02
  18.826  0.3361E-01  0.1599E+02
  18.836  0.3320E-01  0.1599E+02
  18.846  0.3278E-01  0.1599E+02
  18.856  0.3237E-01  0.1599E+02
  18.866  0.3196E-01  0.1599E+02
  18.876  0.3156E-01  0.1599E+02
  18.886  0.3116E-01  0.1599E+02
  18.896  0.3077E-01  0.1599E+02
  18.906  0.3037E-01  0.1599E+02
  18.916  0.2999E-01  0.1599E+02
  18.926  0.2960E-01  0.1599E+02
  18.936  0.2922E-01  0.1599E+02
  18.946  0.2885E-01  0.1599E+02
  18.956  0.2848E-01  0.1599E+02
  18.966  0.2811E-01  0.1599E+02
  18.976  0.2774E-01  0.1599E+02
  18.986  0.2738E-01  0.1599E+02
  18.996  0.2703E-01  0.1599E+02
  19.006  0.2668E-01  0.1599E+02
  19.016  0.2633E-01  0.1599E+02
  19.026  0.2599E-01  0.1599E+02
  19.036  0.2565E-01  0.1599E+02
  19.046  0.2531E-01  0.1599E+02
  19.056  0.2498E-01  0.1599E+02
  19.066  0.2465E-01  0.1599E+02
  19.076  0.3032E-01  0.1599E+02
  19.086  0.3932E-01  0.1599E+02
  19.096  0.3120E-01  0.1599E+02
  19.106  0.2415E-01  0.1599E+02
  19.116  0.2387E-01  0.1599E+02
  19.126  0.2355E-01  0.1599E+02
  19.136  0.2318E-01  0.1599E+02
  19.146  0.2277E-01  0.1599E+02
  19.156  0.2230E-01  0.1599E+02
  19.166  0.2179E-01  0.1600E+02
  19.176  0.2123E-01  0.1600E+02
  19.186  0.2063E-01  0.1600E+02
  19.196  0.1998E-01  0.1600E+02
  19.206  0.1928E-01  0.1600E+02
  19.216  0.1853E-01  0.1600E+02
  19.226  0.1775E-01  0.1600E+02
  19.236  0.1693E-01  0.1600E+02
  19.246  0.1607E-01  0.1600E+02
  19.256  0.1517E-01  0.1600E+02
  19.266  0.1469E-01  0.1600E+02
  19.276  0.1430E-01  0.1600E+02
  19.286  0.1393E-01  0.1600E+02
  19.296  0.1356E-01  0.1600E+02
  19.306  0.1321E-01  0.1600E+02
  19.316  0.1288E-01  0.1600E+02
  19.326  0.1255E-01  0.1600E+02
  19.336  0.1224E-01  0.1600E+02
  19.346  0.1193E-01  0.1600E+02
  19.356  0.1165E-01  0.1600E+02
  19.366  0.1137E-01  0.1600E+02
  19.376  0.1111E-01  0.1600E+02
  19.386  0.1092E-01  0.1600E+02
  19.396  0.1071E-01  0.1600E+02
  19.406  0.1048E-01  0.1600E+02
  19.416  0.1023E-01  0.1600E+02
  19.426  0.9967E-02  0.1600E+02
  19.436  0.9683E-02  0.1600E+02
  19.446  0.9379E-02  0.1600E+02
  19.456  0.9057E-02  0.1600E+02
  19.466  0.8714E-02  0.1600E+02
  19.476  0.8353E-02  0.1600E+02
  19.486  0.7972E-02  0.1600E+02
  19.496  0.7571E-02  0.1600E+02
  19.506  0.7152E-02  0.1600E+02
  19.516  0.6713E-02  0.1600E+02
  19.526  0.6254E-02  0.1600E+02
  19.536  0.5776E-02  0.1600E+02
  19.546  0.5279E-02  0.1600E+02
  19.556  0.4762E-02  0.1600E+02
  19.566  0.4226E-02  0.1600E+02
  19.576  0.3671E-02  0.1600E+02
  19.586  0.3096E-02  0.1600E+02
  19.596  0.2147E-02  0.1600E+02
  19.606  0.1330E-02  0.1600E+02
  19.616  0.7077E-03  0.1600E+02
  19.626  0.2802E-03  0.1600E+02
  19.636  0.4726E-04  0.1600E+02
